#  E (eV)   dos(E)     Int dos(E) EFermi =    4.085 eV
 -15.000  0.0000E+00  0.0000E+00
 -14.990  0.0000E+00  0.0000E+00
 -14.980  0.0000E+00  0.0000E+00
 -14.970  0.0000E+00  0.0000E+00
 -14.960  0.0000E+00  0.0000E+00
 -14.950  0.0000E+00  0.0000E+00
 -14.940  0.0000E+00  0.0000E+00
 -14.930  0.0000E+00  0.0000E+00
 -14.920  0.0000E+00  0.0000E+00
 -14.910  0.0000E+00  0.0000E+00
 -14.900  0.0000E+00  0.0000E+00
 -14.890  0.0000E+00  0.0000E+00
 -14.880  0.0000E+00  0.0000E+00
 -14.870  0.0000E+00  0.0000E+00
 -14.860  0.0000E+00  0.0000E+00
 -14.850  0.0000E+00  0.0000E+00
 -14.840  0.0000E+00  0.0000E+00
 -14.830  0.0000E+00  0.0000E+00
 -14.820  0.0000E+00  0.0000E+00
 -14.810  0.0000E+00  0.0000E+00
 -14.800  0.0000E+00  0.0000E+00
 -14.790  0.0000E+00  0.0000E+00
 -14.780  0.0000E+00  0.0000E+00
 -14.770  0.0000E+00  0.0000E+00
 -14.760  0.0000E+00  0.0000E+00
 -14.750  0.0000E+00  0.0000E+00
 -14.740  0.0000E+00  0.0000E+00
 -14.730  0.0000E+00  0.0000E+00
 -14.720  0.0000E+00  0.0000E+00
 -14.710  0.0000E+00  0.0000E+00
 -14.700  0.0000E+00  0.0000E+00
 -14.690  0.0000E+00  0.0000E+00
 -14.680  0.0000E+00  0.0000E+00
 -14.670  0.0000E+00  0.0000E+00
 -14.660  0.0000E+00  0.0000E+00
 -14.650  0.0000E+00  0.0000E+00
 -14.640  0.0000E+00  0.0000E+00
 -14.630  0.0000E+00  0.0000E+00
 -14.620  0.0000E+00  0.0000E+00
 -14.610  0.0000E+00  0.0000E+00
 -14.600  0.0000E+00  0.0000E+00
 -14.590  0.0000E+00  0.0000E+00
 -14.580  0.0000E+00  0.0000E+00
 -14.570  0.0000E+00  0.0000E+00
 -14.560  0.0000E+00  0.0000E+00
 -14.550  0.0000E+00  0.0000E+00
 -14.540  0.0000E+00  0.0000E+00
 -14.530  0.0000E+00  0.0000E+00
 -14.520  0.0000E+00  0.0000E+00
 -14.510  0.0000E+00  0.0000E+00
 -14.500  0.0000E+00  0.0000E+00
 -14.490  0.0000E+00  0.0000E+00
 -14.480  0.0000E+00  0.0000E+00
 -14.470  0.0000E+00  0.0000E+00
 -14.460  0.0000E+00  0.0000E+00
 -14.450  0.0000E+00  0.0000E+00
 -14.440  0.0000E+00  0.0000E+00
 -14.430  0.0000E+00  0.0000E+00
 -14.420  0.0000E+00  0.0000E+00
 -14.410  0.0000E+00  0.0000E+00
 -14.400  0.0000E+00  0.0000E+00
 -14.390  0.0000E+00  0.0000E+00
 -14.380  0.0000E+00  0.0000E+00
 -14.370  0.0000E+00  0.0000E+00
 -14.360  0.0000E+00  0.0000E+00
 -14.350  0.0000E+00  0.0000E+00
 -14.340  0.0000E+00  0.0000E+00
 -14.330  0.0000E+00  0.0000E+00
 -14.320  0.0000E+00  0.0000E+00
 -14.310  0.0000E+00  0.0000E+00
 -14.300  0.0000E+00  0.0000E+00
 -14.290  0.0000E+00  0.0000E+00
 -14.280  0.0000E+00  0.0000E+00
 -14.270  0.0000E+00  0.0000E+00
 -14.260  0.0000E+00  0.0000E+00
 -14.250  0.0000E+00  0.0000E+00
 -14.240  0.0000E+00  0.0000E+00
 -14.230  0.0000E+00  0.0000E+00
 -14.220  0.0000E+00  0.0000E+00
 -14.210  0.0000E+00  0.0000E+00
 -14.200  0.0000E+00  0.0000E+00
 -14.190  0.0000E+00  0.0000E+00
 -14.180  0.0000E+00  0.0000E+00
 -14.170  0.0000E+00  0.0000E+00
 -14.160  0.0000E+00  0.0000E+00
 -14.150  0.0000E+00  0.0000E+00
 -14.140  0.0000E+00  0.0000E+00
 -14.130  0.0000E+00  0.0000E+00
 -14.120  0.0000E+00  0.0000E+00
 -14.110  0.0000E+00  0.0000E+00
 -14.100  0.0000E+00  0.0000E+00
 -14.090  0.0000E+00  0.0000E+00
 -14.080  0.0000E+00  0.0000E+00
 -14.070  0.0000E+00  0.0000E+00
 -14.060  0.0000E+00  0.0000E+00
 -14.050  0.0000E+00  0.0000E+00
 -14.040  0.0000E+00  0.0000E+00
 -14.030  0.0000E+00  0.0000E+00
 -14.020  0.0000E+00  0.0000E+00
 -14.010  0.0000E+00  0.0000E+00
 -14.000  0.0000E+00  0.0000E+00
 -13.990  0.0000E+00  0.0000E+00
 -13.980  0.0000E+00  0.0000E+00
 -13.970  0.0000E+00  0.0000E+00
 -13.960  0.0000E+00  0.0000E+00
 -13.950  0.0000E+00  0.0000E+00
 -13.940  0.0000E+00  0.0000E+00
 -13.930  0.0000E+00  0.0000E+00
 -13.920  0.0000E+00  0.0000E+00
 -13.910  0.0000E+00  0.0000E+00
 -13.900  0.0000E+00  0.0000E+00
 -13.890  0.0000E+00  0.0000E+00
 -13.880  0.0000E+00  0.0000E+00
 -13.870  0.0000E+00  0.0000E+00
 -13.860  0.0000E+00  0.0000E+00
 -13.850  0.0000E+00  0.0000E+00
 -13.840  0.0000E+00  0.0000E+00
 -13.830  0.0000E+00  0.0000E+00
 -13.820  0.0000E+00  0.0000E+00
 -13.810  0.0000E+00  0.0000E+00
 -13.800  0.0000E+00  0.0000E+00
 -13.790  0.0000E+00  0.0000E+00
 -13.780  0.0000E+00  0.0000E+00
 -13.770  0.0000E+00  0.0000E+00
 -13.760  0.0000E+00  0.0000E+00
 -13.750  0.0000E+00  0.0000E+00
 -13.740  0.0000E+00  0.0000E+00
 -13.730  0.0000E+00  0.0000E+00
 -13.720  0.0000E+00  0.0000E+00
 -13.710  0.0000E+00  0.0000E+00
 -13.700  0.0000E+00  0.0000E+00
 -13.690  0.0000E+00  0.0000E+00
 -13.680  0.0000E+00  0.0000E+00
 -13.670  0.0000E+00  0.0000E+00
 -13.660  0.0000E+00  0.0000E+00
 -13.650  0.0000E+00  0.0000E+00
 -13.640  0.0000E+00  0.0000E+00
 -13.630  0.0000E+00  0.0000E+00
 -13.620  0.0000E+00  0.0000E+00
 -13.610  0.0000E+00  0.0000E+00
 -13.600  0.0000E+00  0.0000E+00
 -13.590  0.0000E+00  0.0000E+00
 -13.580  0.0000E+00  0.0000E+00
 -13.570  0.0000E+00  0.0000E+00
 -13.560  0.0000E+00  0.0000E+00
 -13.550  0.0000E+00  0.0000E+00
 -13.540  0.0000E+00  0.0000E+00
 -13.530  0.0000E+00  0.0000E+00
 -13.520  0.0000E+00  0.0000E+00
 -13.510  0.0000E+00  0.0000E+00
 -13.500  0.0000E+00  0.0000E+00
 -13.490  0.0000E+00  0.0000E+00
 -13.480  0.0000E+00  0.0000E+00
 -13.470  0.0000E+00  0.0000E+00
 -13.460  0.0000E+00  0.0000E+00
 -13.450  0.0000E+00  0.0000E+00
 -13.440  0.0000E+00  0.0000E+00
 -13.430  0.0000E+00  0.0000E+00
 -13.420  0.0000E+00  0.0000E+00
 -13.410  0.0000E+00  0.0000E+00
 -13.400  0.0000E+00  0.0000E+00
 -13.390  0.0000E+00  0.0000E+00
 -13.380  0.0000E+00  0.0000E+00
 -13.370  0.0000E+00  0.0000E+00
 -13.360  0.0000E+00  0.0000E+00
 -13.350  0.0000E+00  0.0000E+00
 -13.340  0.0000E+00  0.0000E+00
 -13.330  0.0000E+00  0.0000E+00
 -13.320  0.0000E+00  0.0000E+00
 -13.310  0.0000E+00  0.0000E+00
 -13.300  0.0000E+00  0.0000E+00
 -13.290  0.0000E+00  0.0000E+00
 -13.280  0.0000E+00  0.0000E+00
 -13.270  0.0000E+00  0.0000E+00
 -13.260  0.0000E+00  0.0000E+00
 -13.250  0.0000E+00  0.0000E+00
 -13.240  0.0000E+00  0.0000E+00
 -13.230  0.0000E+00  0.0000E+00
 -13.220  0.0000E+00  0.0000E+00
 -13.210  0.0000E+00  0.0000E+00
 -13.200  0.0000E+00  0.0000E+00
 -13.190  0.0000E+00  0.0000E+00
 -13.180  0.0000E+00  0.0000E+00
 -13.170  0.0000E+00  0.0000E+00
 -13.160  0.0000E+00  0.0000E+00
 -13.150  0.0000E+00  0.0000E+00
 -13.140  0.0000E+00  0.0000E+00
 -13.130  0.0000E+00  0.0000E+00
 -13.120  0.0000E+00  0.0000E+00
 -13.110  0.0000E+00  0.0000E+00
 -13.100  0.0000E+00  0.0000E+00
 -13.090  0.0000E+00  0.0000E+00
 -13.080  0.0000E+00  0.0000E+00
 -13.070  0.0000E+00  0.0000E+00
 -13.060  0.0000E+00  0.0000E+00
 -13.050  0.0000E+00  0.0000E+00
 -13.040  0.0000E+00  0.0000E+00
 -13.030  0.0000E+00  0.0000E+00
 -13.020  0.0000E+00  0.0000E+00
 -13.010  0.0000E+00  0.0000E+00
 -13.000  0.0000E+00  0.0000E+00
 -12.990  0.0000E+00  0.0000E+00
 -12.980  0.0000E+00  0.0000E+00
 -12.970  0.0000E+00  0.0000E+00
 -12.960  0.0000E+00  0.0000E+00
 -12.950  0.0000E+00  0.0000E+00
 -12.940  0.0000E+00  0.0000E+00
 -12.930  0.0000E+00  0.0000E+00
 -12.920  0.0000E+00  0.0000E+00
 -12.910  0.0000E+00  0.0000E+00
 -12.900  0.0000E+00  0.0000E+00
 -12.890  0.0000E+00  0.0000E+00
 -12.880  0.0000E+00  0.0000E+00
 -12.870  0.0000E+00  0.0000E+00
 -12.860  0.0000E+00  0.0000E+00
 -12.850  0.0000E+00  0.0000E+00
 -12.840  0.0000E+00  0.0000E+00
 -12.830  0.0000E+00  0.0000E+00
 -12.820  0.0000E+00  0.0000E+00
 -12.810  0.0000E+00  0.0000E+00
 -12.800  0.0000E+00  0.0000E+00
 -12.790  0.0000E+00  0.0000E+00
 -12.780  0.0000E+00  0.0000E+00
 -12.770  0.0000E+00  0.0000E+00
 -12.760  0.0000E+00  0.0000E+00
 -12.750  0.0000E+00  0.0000E+00
 -12.740  0.0000E+00  0.0000E+00
 -12.730  0.0000E+00  0.0000E+00
 -12.720  0.0000E+00  0.0000E+00
 -12.710  0.0000E+00  0.0000E+00
 -12.700  0.0000E+00  0.0000E+00
 -12.690  0.0000E+00  0.0000E+00
 -12.680  0.0000E+00  0.0000E+00
 -12.670  0.0000E+00  0.0000E+00
 -12.660  0.0000E+00  0.0000E+00
 -12.650  0.0000E+00  0.0000E+00
 -12.640  0.0000E+00  0.0000E+00
 -12.630  0.0000E+00  0.0000E+00
 -12.620  0.0000E+00  0.0000E+00
 -12.610  0.0000E+00  0.0000E+00
 -12.600  0.0000E+00  0.0000E+00
 -12.590  0.0000E+00  0.0000E+00
 -12.580  0.0000E+00  0.0000E+00
 -12.570  0.0000E+00  0.0000E+00
 -12.560  0.0000E+00  0.0000E+00
 -12.550  0.0000E+00  0.0000E+00
 -12.540  0.0000E+00  0.0000E+00
 -12.530  0.0000E+00  0.0000E+00
 -12.520  0.0000E+00  0.0000E+00
 -12.510  0.0000E+00  0.0000E+00
 -12.500  0.0000E+00  0.0000E+00
 -12.490  0.0000E+00  0.0000E+00
 -12.480  0.0000E+00  0.0000E+00
 -12.470  0.0000E+00  0.0000E+00
 -12.460  0.0000E+00  0.0000E+00
 -12.450  0.0000E+00  0.0000E+00
 -12.440  0.0000E+00  0.0000E+00
 -12.430  0.0000E+00  0.0000E+00
 -12.420  0.0000E+00  0.0000E+00
 -12.410  0.0000E+00  0.0000E+00
 -12.400  0.0000E+00  0.0000E+00
 -12.390  0.0000E+00  0.0000E+00
 -12.380  0.0000E+00  0.0000E+00
 -12.370  0.0000E+00  0.0000E+00
 -12.360  0.0000E+00  0.0000E+00
 -12.350  0.0000E+00  0.0000E+00
 -12.340  0.0000E+00  0.0000E+00
 -12.330  0.0000E+00  0.0000E+00
 -12.320  0.0000E+00  0.0000E+00
 -12.310  0.0000E+00  0.0000E+00
 -12.300  0.0000E+00  0.0000E+00
 -12.290  0.0000E+00  0.0000E+00
 -12.280  0.0000E+00  0.0000E+00
 -12.270  0.0000E+00  0.0000E+00
 -12.260  0.0000E+00  0.0000E+00
 -12.250  0.0000E+00  0.0000E+00
 -12.240  0.0000E+00  0.0000E+00
 -12.230  0.0000E+00  0.0000E+00
 -12.220  0.0000E+00  0.0000E+00
 -12.210  0.0000E+00  0.0000E+00
 -12.200  0.0000E+00  0.0000E+00
 -12.190  0.0000E+00  0.0000E+00
 -12.180  0.0000E+00  0.0000E+00
 -12.170  0.0000E+00  0.0000E+00
 -12.160  0.0000E+00  0.0000E+00
 -12.150  0.0000E+00  0.0000E+00
 -12.140  0.0000E+00  0.0000E+00
 -12.130  0.0000E+00  0.0000E+00
 -12.120  0.0000E+00  0.0000E+00
 -12.110  0.0000E+00  0.0000E+00
 -12.100  0.0000E+00  0.0000E+00
 -12.090  0.0000E+00  0.0000E+00
 -12.080  0.0000E+00  0.0000E+00
 -12.070  0.0000E+00  0.0000E+00
 -12.060  0.0000E+00  0.0000E+00
 -12.050  0.0000E+00  0.0000E+00
 -12.040  0.0000E+00  0.0000E+00
 -12.030  0.0000E+00  0.0000E+00
 -12.020  0.0000E+00  0.0000E+00
 -12.010  0.0000E+00  0.0000E+00
 -12.000  0.0000E+00  0.0000E+00
 -11.990  0.0000E+00  0.0000E+00
 -11.980  0.0000E+00  0.0000E+00
 -11.970  0.0000E+00  0.0000E+00
 -11.960  0.0000E+00  0.0000E+00
 -11.950  0.0000E+00  0.0000E+00
 -11.940  0.0000E+00  0.0000E+00
 -11.930  0.0000E+00  0.0000E+00
 -11.920  0.0000E+00  0.0000E+00
 -11.910  0.0000E+00  0.0000E+00
 -11.900  0.0000E+00  0.0000E+00
 -11.890  0.0000E+00  0.0000E+00
 -11.880  0.0000E+00  0.0000E+00
 -11.870  0.0000E+00  0.0000E+00
 -11.860  0.0000E+00  0.0000E+00
 -11.850  0.0000E+00  0.0000E+00
 -11.840  0.0000E+00  0.0000E+00
 -11.830  0.0000E+00  0.0000E+00
 -11.820  0.0000E+00  0.0000E+00
 -11.810  0.0000E+00  0.0000E+00
 -11.800  0.0000E+00  0.0000E+00
 -11.790  0.0000E+00  0.0000E+00
 -11.780  0.0000E+00  0.0000E+00
 -11.770  0.0000E+00  0.0000E+00
 -11.760  0.0000E+00  0.0000E+00
 -11.750  0.0000E+00  0.0000E+00
 -11.740  0.0000E+00  0.0000E+00
 -11.730  0.0000E+00  0.0000E+00
 -11.720  0.0000E+00  0.0000E+00
 -11.710  0.0000E+00  0.0000E+00
 -11.700  0.0000E+00  0.0000E+00
 -11.690  0.0000E+00  0.0000E+00
 -11.680  0.0000E+00  0.0000E+00
 -11.670  0.0000E+00  0.0000E+00
 -11.660  0.0000E+00  0.0000E+00
 -11.650  0.0000E+00  0.0000E+00
 -11.640  0.0000E+00  0.0000E+00
 -11.630  0.0000E+00  0.0000E+00
 -11.620  0.0000E+00  0.0000E+00
 -11.610  0.0000E+00  0.0000E+00
 -11.600  0.0000E+00  0.0000E+00
 -11.590  0.0000E+00  0.0000E+00
 -11.580  0.0000E+00  0.0000E+00
 -11.570  0.0000E+00  0.0000E+00
 -11.560  0.0000E+00  0.0000E+00
 -11.550  0.0000E+00  0.0000E+00
 -11.540  0.0000E+00  0.0000E+00
 -11.530  0.0000E+00  0.0000E+00
 -11.520  0.0000E+00  0.0000E+00
 -11.510  0.0000E+00  0.0000E+00
 -11.500  0.0000E+00  0.0000E+00
 -11.490  0.0000E+00  0.0000E+00
 -11.480  0.0000E+00  0.0000E+00
 -11.470  0.0000E+00  0.0000E+00
 -11.460  0.0000E+00  0.0000E+00
 -11.450  0.0000E+00  0.0000E+00
 -11.440  0.0000E+00  0.0000E+00
 -11.430  0.0000E+00  0.0000E+00
 -11.420  0.0000E+00  0.0000E+00
 -11.410  0.0000E+00  0.0000E+00
 -11.400  0.0000E+00  0.0000E+00
 -11.390  0.0000E+00  0.0000E+00
 -11.380  0.0000E+00  0.0000E+00
 -11.370  0.0000E+00  0.0000E+00
 -11.360  0.0000E+00  0.0000E+00
 -11.350  0.0000E+00  0.0000E+00
 -11.340  0.0000E+00  0.0000E+00
 -11.330  0.0000E+00  0.0000E+00
 -11.320  0.0000E+00  0.0000E+00
 -11.310  0.0000E+00  0.0000E+00
 -11.300  0.0000E+00  0.0000E+00
 -11.290  0.0000E+00  0.0000E+00
 -11.280  0.0000E+00  0.0000E+00
 -11.270  0.0000E+00  0.0000E+00
 -11.260  0.0000E+00  0.0000E+00
 -11.250  0.0000E+00  0.0000E+00
 -11.240  0.0000E+00  0.0000E+00
 -11.230  0.0000E+00  0.0000E+00
 -11.220  0.0000E+00  0.0000E+00
 -11.210  0.0000E+00  0.0000E+00
 -11.200  0.0000E+00  0.0000E+00
 -11.190  0.0000E+00  0.0000E+00
 -11.180  0.0000E+00  0.0000E+00
 -11.170  0.0000E+00  0.0000E+00
 -11.160  0.0000E+00  0.0000E+00
 -11.150  0.0000E+00  0.0000E+00
 -11.140  0.0000E+00  0.0000E+00
 -11.130  0.0000E+00  0.0000E+00
 -11.120  0.0000E+00  0.0000E+00
 -11.110  0.0000E+00  0.0000E+00
 -11.100  0.0000E+00  0.0000E+00
 -11.090  0.0000E+00  0.0000E+00
 -11.080  0.0000E+00  0.0000E+00
 -11.070  0.0000E+00  0.0000E+00
 -11.060  0.0000E+00  0.0000E+00
 -11.050  0.0000E+00  0.0000E+00
 -11.040  0.0000E+00  0.0000E+00
 -11.030  0.0000E+00  0.0000E+00
 -11.020  0.0000E+00  0.0000E+00
 -11.010  0.0000E+00  0.0000E+00
 -11.000  0.0000E+00  0.0000E+00
 -10.990  0.0000E+00  0.0000E+00
 -10.980  0.0000E+00  0.0000E+00
 -10.970  0.0000E+00  0.0000E+00
 -10.960  0.0000E+00  0.0000E+00
 -10.950  0.0000E+00  0.0000E+00
 -10.940  0.0000E+00  0.0000E+00
 -10.930  0.0000E+00  0.0000E+00
 -10.920  0.0000E+00  0.0000E+00
 -10.910  0.0000E+00  0.0000E+00
 -10.900  0.0000E+00  0.0000E+00
 -10.890  0.0000E+00  0.0000E+00
 -10.880  0.0000E+00  0.0000E+00
 -10.870  0.0000E+00  0.0000E+00
 -10.860  0.0000E+00  0.0000E+00
 -10.850  0.0000E+00  0.0000E+00
 -10.840  0.0000E+00  0.0000E+00
 -10.830  0.0000E+00  0.0000E+00
 -10.820  0.0000E+00  0.0000E+00
 -10.810  0.0000E+00  0.0000E+00
 -10.800  0.0000E+00  0.0000E+00
 -10.790  0.0000E+00  0.0000E+00
 -10.780  0.0000E+00  0.0000E+00
 -10.770  0.0000E+00  0.0000E+00
 -10.760  0.0000E+00  0.0000E+00
 -10.750  0.0000E+00  0.0000E+00
 -10.740  0.0000E+00  0.0000E+00
 -10.730  0.0000E+00  0.0000E+00
 -10.720  0.0000E+00  0.0000E+00
 -10.710  0.0000E+00  0.0000E+00
 -10.700  0.0000E+00  0.0000E+00
 -10.690  0.0000E+00  0.0000E+00
 -10.680  0.0000E+00  0.0000E+00
 -10.670  0.0000E+00  0.0000E+00
 -10.660  0.0000E+00  0.0000E+00
 -10.650  0.0000E+00  0.0000E+00
 -10.640  0.0000E+00  0.0000E+00
 -10.630  0.0000E+00  0.0000E+00
 -10.620  0.0000E+00  0.0000E+00
 -10.610  0.0000E+00  0.0000E+00
 -10.600  0.0000E+00  0.0000E+00
 -10.590  0.0000E+00  0.0000E+00
 -10.580  0.0000E+00  0.0000E+00
 -10.570  0.0000E+00  0.0000E+00
 -10.560  0.0000E+00  0.0000E+00
 -10.550  0.0000E+00  0.0000E+00
 -10.540  0.0000E+00  0.0000E+00
 -10.530  0.0000E+00  0.0000E+00
 -10.520  0.0000E+00  0.0000E+00
 -10.510  0.0000E+00  0.0000E+00
 -10.500  0.0000E+00  0.0000E+00
 -10.490  0.0000E+00  0.0000E+00
 -10.480  0.0000E+00  0.0000E+00
 -10.470  0.0000E+00  0.0000E+00
 -10.460  0.0000E+00  0.0000E+00
 -10.450  0.0000E+00  0.0000E+00
 -10.440  0.0000E+00  0.0000E+00
 -10.430  0.0000E+00  0.0000E+00
 -10.420  0.0000E+00  0.0000E+00
 -10.410  0.0000E+00  0.0000E+00
 -10.400  0.0000E+00  0.0000E+00
 -10.390  0.0000E+00  0.0000E+00
 -10.380  0.0000E+00  0.0000E+00
 -10.370  0.0000E+00  0.0000E+00
 -10.360  0.0000E+00  0.0000E+00
 -10.350  0.0000E+00  0.0000E+00
 -10.340  0.0000E+00  0.0000E+00
 -10.330  0.0000E+00  0.0000E+00
 -10.320  0.0000E+00  0.0000E+00
 -10.310  0.0000E+00  0.0000E+00
 -10.300  0.0000E+00  0.0000E+00
 -10.290  0.0000E+00  0.0000E+00
 -10.280  0.0000E+00  0.0000E+00
 -10.270  0.0000E+00  0.0000E+00
 -10.260  0.0000E+00  0.0000E+00
 -10.250  0.0000E+00  0.0000E+00
 -10.240  0.0000E+00  0.0000E+00
 -10.230  0.0000E+00  0.0000E+00
 -10.220  0.0000E+00  0.0000E+00
 -10.210  0.0000E+00  0.0000E+00
 -10.200  0.0000E+00  0.0000E+00
 -10.190  0.0000E+00  0.0000E+00
 -10.180  0.0000E+00  0.0000E+00
 -10.170  0.0000E+00  0.0000E+00
 -10.160  0.0000E+00  0.0000E+00
 -10.150  0.0000E+00  0.0000E+00
 -10.140  0.0000E+00  0.0000E+00
 -10.130  0.0000E+00  0.0000E+00
 -10.120  0.0000E+00  0.0000E+00
 -10.110  0.0000E+00  0.0000E+00
 -10.100  0.0000E+00  0.0000E+00
 -10.090  0.0000E+00  0.0000E+00
 -10.080  0.0000E+00  0.0000E+00
 -10.070  0.0000E+00  0.0000E+00
 -10.060  0.0000E+00  0.0000E+00
 -10.050  0.0000E+00  0.0000E+00
 -10.040  0.0000E+00  0.0000E+00
 -10.030  0.0000E+00  0.0000E+00
 -10.020  0.0000E+00  0.0000E+00
 -10.010  0.0000E+00  0.0000E+00
 -10.000  0.0000E+00  0.0000E+00
  -9.990  0.0000E+00  0.0000E+00
  -9.980  0.0000E+00  0.0000E+00
  -9.970  0.0000E+00  0.0000E+00
  -9.960  0.0000E+00  0.0000E+00
  -9.950  0.0000E+00  0.0000E+00
  -9.940  0.0000E+00  0.0000E+00
  -9.930  0.0000E+00  0.0000E+00
  -9.920  0.0000E+00  0.0000E+00
  -9.910  0.0000E+00  0.0000E+00
  -9.900  0.0000E+00  0.0000E+00
  -9.890  0.0000E+00  0.0000E+00
  -9.880  0.0000E+00  0.0000E+00
  -9.870  0.0000E+00  0.0000E+00
  -9.860  0.0000E+00  0.0000E+00
  -9.850  0.1021E+00  0.1144E-03
  -9.840  0.5553E+00  0.4728E-02
  -9.830  0.9706E+00  0.1435E-01
  -9.820  0.1108E+01  0.2533E-01
  -9.810  0.1099E+01  0.3625E-01
  -9.800  0.1091E+01  0.4724E-01
  -9.790  0.1109E+01  0.5829E-01
  -9.780  0.1119E+01  0.6943E-01
  -9.770  0.1088E+01  0.8030E-01
  -9.760  0.1131E+01  0.9139E-01
  -9.750  0.1197E+01  0.1027E+00
  -9.740  0.1597E+01  0.1180E+00
  -9.730  0.2208E+01  0.1378E+00
  -9.720  0.2312E+01  0.1601E+00
  -9.710  0.2244E+01  0.1826E+00
  -9.700  0.2221E+01  0.2050E+00
  -9.690  0.2233E+01  0.2273E+00
  -9.680  0.2280E+01  0.2498E+00
  -9.670  0.2251E+01  0.2723E+00
  -9.660  0.2279E+01  0.2950E+00
  -9.650  0.2261E+01  0.3177E+00
  -9.640  0.2231E+01  0.3401E+00
  -9.630  0.2266E+01  0.3626E+00
  -9.620  0.2313E+01  0.3855E+00
  -9.610  0.2304E+01  0.4085E+00
  -9.600  0.2256E+01  0.4313E+00
  -9.590  0.2263E+01  0.4538E+00
  -9.580  0.2290E+01  0.4766E+00
  -9.570  0.2305E+01  0.4996E+00
  -9.560  0.2316E+01  0.5228E+00
  -9.550  0.2294E+01  0.5458E+00
  -9.540  0.2287E+01  0.5687E+00
  -9.530  0.2308E+01  0.5916E+00
  -9.520  0.2321E+01  0.6148E+00
  -9.510  0.2322E+01  0.6380E+00
  -9.500  0.2320E+01  0.6612E+00
  -9.490  0.2329E+01  0.6844E+00
  -9.480  0.2333E+01  0.7077E+00
  -9.470  0.2337E+01  0.7311E+00
  -9.460  0.2341E+01  0.7545E+00
  -9.450  0.2338E+01  0.7779E+00
  -9.440  0.2337E+01  0.8013E+00
  -9.430  0.2352E+01  0.8247E+00
  -9.420  0.2367E+01  0.8483E+00
  -9.410  0.2372E+01  0.8720E+00
  -9.400  0.2378E+01  0.8958E+00
  -9.390  0.2377E+01  0.9195E+00
  -9.380  0.2362E+01  0.9432E+00
  -9.370  0.2365E+01  0.9668E+00
  -9.360  0.2381E+01  0.9906E+00
  -9.350  0.2402E+01  0.1014E+01
  -9.340  0.2416E+01  0.1039E+01
  -9.330  0.2417E+01  0.1063E+01
  -9.320  0.2408E+01  0.1087E+01
  -9.310  0.2406E+01  0.1111E+01
  -9.300  0.2406E+01  0.1135E+01
  -9.290  0.2410E+01  0.1159E+01
  -9.280  0.2422E+01  0.1183E+01
  -9.270  0.2443E+01  0.1208E+01
  -9.260  0.2465E+01  0.1232E+01
  -9.250  0.2467E+01  0.1257E+01
  -9.240  0.2452E+01  0.1281E+01
  -9.230  0.2443E+01  0.1306E+01
  -9.220  0.2452E+01  0.1330E+01
  -9.210  0.2462E+01  0.1355E+01
  -9.200  0.2471E+01  0.1380E+01
  -9.190  0.2483E+01  0.1404E+01
  -9.180  0.2500E+01  0.1429E+01
  -9.170  0.2519E+01  0.1454E+01
  -9.160  0.2518E+01  0.1479E+01
  -9.150  0.2501E+01  0.1505E+01
  -9.140  0.2501E+01  0.1530E+01
  -9.130  0.2508E+01  0.1555E+01
  -9.120  0.2519E+01  0.1580E+01
  -9.110  0.2534E+01  0.1605E+01
  -9.100  0.2546E+01  0.1630E+01
  -9.090  0.2561E+01  0.1656E+01
  -9.080  0.2572E+01  0.1682E+01
  -9.070  0.2571E+01  0.1707E+01
  -9.060  0.2566E+01  0.1733E+01
  -9.050  0.2568E+01  0.1759E+01
  -9.040  0.2575E+01  0.1784E+01
  -9.030  0.2585E+01  0.1810E+01
  -9.020  0.2596E+01  0.1836E+01
  -9.010  0.2611E+01  0.1862E+01
  -9.000  0.2627E+01  0.1888E+01
  -8.990  0.2637E+01  0.1915E+01
  -8.980  0.2644E+01  0.1941E+01
  -8.970  0.2643E+01  0.1967E+01
  -8.960  0.2642E+01  0.1994E+01
  -8.950  0.2650E+01  0.2020E+01
  -8.940  0.2659E+01  0.2047E+01
  -8.930  0.2671E+01  0.2074E+01
  -8.920  0.2685E+01  0.2100E+01
  -8.910  0.2698E+01  0.2127E+01
  -8.900  0.2714E+01  0.2154E+01
  -8.890  0.2723E+01  0.2181E+01
  -8.880  0.2728E+01  0.2209E+01
  -8.870  0.2733E+01  0.2236E+01
  -8.860  0.2737E+01  0.2263E+01
  -8.850  0.2743E+01  0.2291E+01
  -8.840  0.2755E+01  0.2318E+01
  -8.830  0.2768E+01  0.2346E+01
  -8.820  0.2784E+01  0.2374E+01
  -8.810  0.2801E+01  0.2402E+01
  -8.800  0.2814E+01  0.2430E+01
  -8.790  0.2821E+01  0.2458E+01
  -8.780  0.2830E+01  0.2486E+01
  -8.770  0.2839E+01  0.2514E+01
  -8.760  0.2848E+01  0.2543E+01
  -8.750  0.2860E+01  0.2571E+01
  -8.740  0.2870E+01  0.2600E+01
  -8.730  0.2882E+01  0.2629E+01
  -8.720  0.2898E+01  0.2658E+01
  -8.710  0.2918E+01  0.2687E+01
  -8.700  0.2935E+01  0.2716E+01
  -8.690  0.2946E+01  0.2745E+01
  -8.680  0.2955E+01  0.2775E+01
  -8.670  0.2966E+01  0.2805E+01
  -8.660  0.2976E+01  0.2834E+01
  -8.650  0.2992E+01  0.2864E+01
  -8.640  0.3009E+01  0.2894E+01
  -8.630  0.3024E+01  0.2924E+01
  -8.620  0.3039E+01  0.2955E+01
  -8.610  0.3055E+01  0.2985E+01
  -8.600  0.3076E+01  0.3016E+01
  -8.590  0.3094E+01  0.3047E+01
  -8.580  0.3110E+01  0.3078E+01
  -8.570  0.3126E+01  0.3109E+01
  -8.560  0.3138E+01  0.3140E+01
  -8.550  0.3151E+01  0.3172E+01
  -8.540  0.3172E+01  0.3203E+01
  -8.530  0.3195E+01  0.3235E+01
  -8.520  0.3217E+01  0.3267E+01
  -8.510  0.3235E+01  0.3299E+01
  -8.500  0.3254E+01  0.3332E+01
  -8.490  0.3272E+01  0.3364E+01
  -8.480  0.3296E+01  0.3397E+01
  -8.470  0.3321E+01  0.3430E+01
  -8.460  0.3343E+01  0.3464E+01
  -8.450  0.3360E+01  0.3497E+01
  -8.440  0.3377E+01  0.3531E+01
  -8.430  0.3404E+01  0.3565E+01
  -8.420  0.3435E+01  0.3599E+01
  -8.410  0.3464E+01  0.3633E+01
  -8.400  0.3489E+01  0.3668E+01
  -8.390  0.3511E+01  0.3703E+01
  -8.380  0.3533E+01  0.3738E+01
  -8.370  0.3567E+01  0.3774E+01
  -8.360  0.3602E+01  0.3810E+01
  -8.350  0.3630E+01  0.3846E+01
  -8.340  0.3657E+01  0.3882E+01
  -8.330  0.3682E+01  0.3919E+01
  -8.320  0.3719E+01  0.3956E+01
  -8.310  0.3761E+01  0.3993E+01
  -8.300  0.3799E+01  0.4031E+01
  -8.290  0.3831E+01  0.4069E+01
  -8.280  0.3861E+01  0.4108E+01
  -8.270  0.3899E+01  0.4147E+01
  -8.260  0.3950E+01  0.4186E+01
  -8.250  0.3994E+01  0.4226E+01
  -8.240  0.4036E+01  0.4266E+01
  -8.230  0.4074E+01  0.4306E+01
  -8.220  0.4118E+01  0.4347E+01
  -8.210  0.4179E+01  0.4389E+01
  -8.200  0.4233E+01  0.4431E+01
  -8.190  0.4281E+01  0.4473E+01
  -8.180  0.4329E+01  0.4516E+01
  -8.170  0.4390E+01  0.4560E+01
  -8.160  0.4462E+01  0.4604E+01
  -8.150  0.4529E+01  0.4649E+01
  -8.140  0.4592E+01  0.4695E+01
  -8.130  0.4658E+01  0.4741E+01
  -8.120  0.4740E+01  0.4788E+01
  -8.110  0.4828E+01  0.4836E+01
  -8.100  0.4904E+01  0.4885E+01
  -8.090  0.4988E+01  0.4934E+01
  -8.080  0.5094E+01  0.4984E+01
  -8.070  0.5200E+01  0.5036E+01
  -8.060  0.5309E+01  0.5088E+01
  -8.050  0.5431E+01  0.5142E+01
  -8.040  0.5568E+01  0.5197E+01
  -8.030  0.5717E+01  0.5253E+01
  -8.020  0.5852E+01  0.5311E+01
  -8.010  0.6038E+01  0.5371E+01
  -8.000  0.6232E+01  0.5432E+01
  -7.990  0.6458E+01  0.5496E+01
  -7.980  0.6713E+01  0.5561E+01
  -7.970  0.7014E+01  0.5630E+01
  -7.960  0.7441E+01  0.5702E+01
  -7.950  0.7884E+01  0.5779E+01
  -7.940  0.8707E+01  0.5861E+01
  -7.930  0.9870E+01  0.5957E+01
  -7.920  0.9696E+01  0.6057E+01
  -7.910  0.9158E+01  0.6150E+01
  -7.900  0.9400E+01  0.6241E+01
  -7.890  0.1086E+02  0.6339E+01
  -7.880  0.9542E+01  0.6443E+01
  -7.870  0.8362E+01  0.6533E+01
  -7.860  0.7915E+01  0.6615E+01
  -7.850  0.7481E+01  0.6692E+01
  -7.840  0.7100E+01  0.6764E+01
  -7.830  0.6747E+01  0.6834E+01
  -7.820  0.6498E+01  0.6900E+01
  -7.810  0.6328E+01  0.6965E+01
  -7.800  0.6077E+01  0.7026E+01
  -7.790  0.5922E+01  0.7086E+01
  -7.780  0.5787E+01  0.7145E+01
  -7.770  0.5661E+01  0.7203E+01
  -7.760  0.5550E+01  0.7258E+01
  -7.750  0.5316E+01  0.7313E+01
  -7.740  0.5223E+01  0.7365E+01
  -7.730  0.5137E+01  0.7417E+01
  -7.720  0.5171E+01  0.7468E+01
  -7.710  0.4862E+01  0.7519E+01
  -7.700  0.4849E+01  0.7568E+01
  -7.690  0.4705E+01  0.7615E+01
  -7.680  0.4772E+01  0.7662E+01
  -7.670  0.4659E+01  0.7709E+01
  -7.660  0.4383E+01  0.7754E+01
  -7.650  0.4448E+01  0.7798E+01
  -7.640  0.4372E+01  0.7843E+01
  -7.630  0.4234E+01  0.7886E+01
  -7.620  0.4140E+01  0.7928E+01
  -7.610  0.2146E+01  0.7952E+01
  -7.600  0.1979E+01  0.7973E+01
  -7.590  0.1876E+01  0.7994E+01
  -7.580  0.0000E+00  0.8000E+01
  -7.570  0.0000E+00  0.8000E+01
  -7.560  0.0000E+00  0.8000E+01
  -7.550  0.0000E+00  0.8000E+01
  -7.540  0.0000E+00  0.8000E+01
  -7.530  0.0000E+00  0.8000E+01
  -7.520  0.0000E+00  0.8000E+01
  -7.510  0.0000E+00  0.8000E+01
  -7.500  0.0000E+00  0.8000E+01
  -7.490  0.0000E+00  0.8000E+01
  -7.480  0.0000E+00  0.8000E+01
  -7.470  0.0000E+00  0.8000E+01
  -7.460  0.0000E+00  0.8000E+01
  -7.450  0.0000E+00  0.8000E+01
  -7.440  0.0000E+00  0.8000E+01
  -7.430  0.0000E+00  0.8000E+01
  -7.420  0.0000E+00  0.8000E+01
  -7.410  0.0000E+00  0.8000E+01
  -7.400  0.0000E+00  0.8000E+01
  -7.390  0.0000E+00  0.8000E+01
  -7.380  0.0000E+00  0.8000E+01
  -7.370  0.0000E+00  0.8000E+01
  -7.360  0.0000E+00  0.8000E+01
  -7.350  0.0000E+00  0.8000E+01
  -7.340  0.0000E+00  0.8000E+01
  -7.330  0.0000E+00  0.8000E+01
  -7.320  0.0000E+00  0.8000E+01
  -7.310  0.0000E+00  0.8000E+01
  -7.300  0.0000E+00  0.8000E+01
  -7.290  0.0000E+00  0.8000E+01
  -7.280  0.0000E+00  0.8000E+01
  -7.270  0.0000E+00  0.8000E+01
  -7.260  0.0000E+00  0.8000E+01
  -7.250  0.0000E+00  0.8000E+01
  -7.240  0.0000E+00  0.8000E+01
  -7.230  0.0000E+00  0.8000E+01
  -7.220  0.0000E+00  0.8000E+01
  -7.210  0.0000E+00  0.8000E+01
  -7.200  0.0000E+00  0.8000E+01
  -7.190  0.0000E+00  0.8000E+01
  -7.180  0.0000E+00  0.8000E+01
  -7.170  0.0000E+00  0.8000E+01
  -7.160  0.0000E+00  0.8000E+01
  -7.150  0.0000E+00  0.8000E+01
  -7.140  0.0000E+00  0.8000E+01
  -7.130  0.0000E+00  0.8000E+01
  -7.120  0.0000E+00  0.8000E+01
  -7.110  0.0000E+00  0.8000E+01
  -7.100  0.0000E+00  0.8000E+01
  -7.090  0.0000E+00  0.8000E+01
  -7.080  0.0000E+00  0.8000E+01
  -7.070  0.0000E+00  0.8000E+01
  -7.060  0.0000E+00  0.8000E+01
  -7.050  0.0000E+00  0.8000E+01
  -7.040  0.0000E+00  0.8000E+01
  -7.030  0.0000E+00  0.8000E+01
  -7.020  0.0000E+00  0.8000E+01
  -7.010  0.0000E+00  0.8000E+01
  -7.000  0.0000E+00  0.8000E+01
  -6.990  0.0000E+00  0.8000E+01
  -6.980  0.0000E+00  0.8000E+01
  -6.970  0.0000E+00  0.8000E+01
  -6.960  0.0000E+00  0.8000E+01
  -6.950  0.0000E+00  0.8000E+01
  -6.940  0.0000E+00  0.8000E+01
  -6.930  0.0000E+00  0.8000E+01
  -6.920  0.0000E+00  0.8000E+01
  -6.910  0.0000E+00  0.8000E+01
  -6.900  0.0000E+00  0.8000E+01
  -6.890  0.0000E+00  0.8000E+01
  -6.880  0.0000E+00  0.8000E+01
  -6.870  0.0000E+00  0.8000E+01
  -6.860  0.0000E+00  0.8000E+01
  -6.850  0.0000E+00  0.8000E+01
  -6.840  0.0000E+00  0.8000E+01
  -6.830  0.0000E+00  0.8000E+01
  -6.820  0.0000E+00  0.8000E+01
  -6.810  0.0000E+00  0.8000E+01
  -6.800  0.0000E+00  0.8000E+01
  -6.790  0.0000E+00  0.8000E+01
  -6.780  0.0000E+00  0.8000E+01
  -6.770  0.0000E+00  0.8000E+01
  -6.760  0.0000E+00  0.8000E+01
  -6.750  0.0000E+00  0.8000E+01
  -6.740  0.0000E+00  0.8000E+01
  -6.730  0.0000E+00  0.8000E+01
  -6.720  0.0000E+00  0.8000E+01
  -6.710  0.0000E+00  0.8000E+01
  -6.700  0.0000E+00  0.8000E+01
  -6.690  0.0000E+00  0.8000E+01
  -6.680  0.0000E+00  0.8000E+01
  -6.670  0.0000E+00  0.8000E+01
  -6.660  0.0000E+00  0.8000E+01
  -6.650  0.0000E+00  0.8000E+01
  -6.640  0.0000E+00  0.8000E+01
  -6.630  0.0000E+00  0.8000E+01
  -6.620  0.0000E+00  0.8000E+01
  -6.610  0.0000E+00  0.8000E+01
  -6.600  0.0000E+00  0.8000E+01
  -6.590  0.0000E+00  0.8000E+01
  -6.580  0.0000E+00  0.8000E+01
  -6.570  0.0000E+00  0.8000E+01
  -6.560  0.0000E+00  0.8000E+01
  -6.550  0.0000E+00  0.8000E+01
  -6.540  0.0000E+00  0.8000E+01
  -6.530  0.0000E+00  0.8000E+01
  -6.520  0.0000E+00  0.8000E+01
  -6.510  0.0000E+00  0.8000E+01
  -6.500  0.0000E+00  0.8000E+01
  -6.490  0.0000E+00  0.8000E+01
  -6.480  0.0000E+00  0.8000E+01
  -6.470  0.0000E+00  0.8000E+01
  -6.460  0.0000E+00  0.8000E+01
  -6.450  0.0000E+00  0.8000E+01
  -6.440  0.0000E+00  0.8000E+01
  -6.430  0.0000E+00  0.8000E+01
  -6.420  0.0000E+00  0.8000E+01
  -6.410  0.0000E+00  0.8000E+01
  -6.400  0.0000E+00  0.8000E+01
  -6.390  0.0000E+00  0.8000E+01
  -6.380  0.0000E+00  0.8000E+01
  -6.370  0.0000E+00  0.8000E+01
  -6.360  0.0000E+00  0.8000E+01
  -6.350  0.0000E+00  0.8000E+01
  -6.340  0.0000E+00  0.8000E+01
  -6.330  0.0000E+00  0.8000E+01
  -6.320  0.0000E+00  0.8000E+01
  -6.310  0.0000E+00  0.8000E+01
  -6.300  0.0000E+00  0.8000E+01
  -6.290  0.0000E+00  0.8000E+01
  -6.280  0.0000E+00  0.8000E+01
  -6.270  0.0000E+00  0.8000E+01
  -6.260  0.0000E+00  0.8000E+01
  -6.250  0.0000E+00  0.8000E+01
  -6.240  0.0000E+00  0.8000E+01
  -6.230  0.0000E+00  0.8000E+01
  -6.220  0.0000E+00  0.8000E+01
  -6.210  0.0000E+00  0.8000E+01
  -6.200  0.0000E+00  0.8000E+01
  -6.190  0.0000E+00  0.8000E+01
  -6.180  0.0000E+00  0.8000E+01
  -6.170  0.0000E+00  0.8000E+01
  -6.160  0.0000E+00  0.8000E+01
  -6.150  0.0000E+00  0.8000E+01
  -6.140  0.0000E+00  0.8000E+01
  -6.130  0.0000E+00  0.8000E+01
  -6.120  0.0000E+00  0.8000E+01
  -6.110  0.0000E+00  0.8000E+01
  -6.100  0.0000E+00  0.8000E+01
  -6.090  0.0000E+00  0.8000E+01
  -6.080  0.0000E+00  0.8000E+01
  -6.070  0.0000E+00  0.8000E+01
  -6.060  0.0000E+00  0.8000E+01
  -6.050  0.0000E+00  0.8000E+01
  -6.040  0.0000E+00  0.8000E+01
  -6.030  0.0000E+00  0.8000E+01
  -6.020  0.0000E+00  0.8000E+01
  -6.010  0.0000E+00  0.8000E+01
  -6.000  0.0000E+00  0.8000E+01
  -5.990  0.0000E+00  0.8000E+01
  -5.980  0.0000E+00  0.8000E+01
  -5.970  0.0000E+00  0.8000E+01
  -5.960  0.0000E+00  0.8000E+01
  -5.950  0.0000E+00  0.8000E+01
  -5.940  0.0000E+00  0.8000E+01
  -5.930  0.0000E+00  0.8000E+01
  -5.920  0.0000E+00  0.8000E+01
  -5.910  0.0000E+00  0.8000E+01
  -5.900  0.0000E+00  0.8000E+01
  -5.890  0.0000E+00  0.8000E+01
  -5.880  0.0000E+00  0.8000E+01
  -5.870  0.0000E+00  0.8000E+01
  -5.860  0.0000E+00  0.8000E+01
  -5.850  0.0000E+00  0.8000E+01
  -5.840  0.0000E+00  0.8000E+01
  -5.830  0.0000E+00  0.8000E+01
  -5.820  0.0000E+00  0.8000E+01
  -5.810  0.0000E+00  0.8000E+01
  -5.800  0.0000E+00  0.8000E+01
  -5.790  0.0000E+00  0.8000E+01
  -5.780  0.0000E+00  0.8000E+01
  -5.770  0.0000E+00  0.8000E+01
  -5.760  0.0000E+00  0.8000E+01
  -5.750  0.0000E+00  0.8000E+01
  -5.740  0.0000E+00  0.8000E+01
  -5.730  0.0000E+00  0.8000E+01
  -5.720  0.0000E+00  0.8000E+01
  -5.710  0.0000E+00  0.8000E+01
  -5.700  0.0000E+00  0.8000E+01
  -5.690  0.0000E+00  0.8000E+01
  -5.680  0.0000E+00  0.8000E+01
  -5.670  0.0000E+00  0.8000E+01
  -5.660  0.0000E+00  0.8000E+01
  -5.650  0.0000E+00  0.8000E+01
  -5.640  0.0000E+00  0.8000E+01
  -5.630  0.0000E+00  0.8000E+01
  -5.620  0.0000E+00  0.8000E+01
  -5.610  0.0000E+00  0.8000E+01
  -5.600  0.0000E+00  0.8000E+01
  -5.590  0.0000E+00  0.8000E+01
  -5.580  0.0000E+00  0.8000E+01
  -5.570  0.0000E+00  0.8000E+01
  -5.560  0.0000E+00  0.8000E+01
  -5.550  0.0000E+00  0.8000E+01
  -5.540  0.0000E+00  0.8000E+01
  -5.530  0.0000E+00  0.8000E+01
  -5.520  0.0000E+00  0.8000E+01
  -5.510  0.0000E+00  0.8000E+01
  -5.500  0.0000E+00  0.8000E+01
  -5.490  0.0000E+00  0.8000E+01
  -5.480  0.0000E+00  0.8000E+01
  -5.470  0.0000E+00  0.8000E+01
  -5.460  0.0000E+00  0.8000E+01
  -5.450  0.0000E+00  0.8000E+01
  -5.440  0.0000E+00  0.8000E+01
  -5.430  0.0000E+00  0.8000E+01
  -5.420  0.0000E+00  0.8000E+01
  -5.410  0.0000E+00  0.8000E+01
  -5.400  0.0000E+00  0.8000E+01
  -5.390  0.0000E+00  0.8000E+01
  -5.380  0.0000E+00  0.8000E+01
  -5.370  0.0000E+00  0.8000E+01
  -5.360  0.0000E+00  0.8000E+01
  -5.350  0.0000E+00  0.8000E+01
  -5.340  0.0000E+00  0.8000E+01
  -5.330  0.0000E+00  0.8000E+01
  -5.320  0.0000E+00  0.8000E+01
  -5.310  0.0000E+00  0.8000E+01
  -5.300  0.0000E+00  0.8000E+01
  -5.290  0.0000E+00  0.8000E+01
  -5.280  0.0000E+00  0.8000E+01
  -5.270  0.0000E+00  0.8000E+01
  -5.260  0.0000E+00  0.8000E+01
  -5.250  0.0000E+00  0.8000E+01
  -5.240  0.0000E+00  0.8000E+01
  -5.230  0.0000E+00  0.8000E+01
  -5.220  0.0000E+00  0.8000E+01
  -5.210  0.0000E+00  0.8000E+01
  -5.200  0.0000E+00  0.8000E+01
  -5.190  0.0000E+00  0.8000E+01
  -5.180  0.0000E+00  0.8000E+01
  -5.170  0.0000E+00  0.8000E+01
  -5.160  0.0000E+00  0.8000E+01
  -5.150  0.0000E+00  0.8000E+01
  -5.140  0.0000E+00  0.8000E+01
  -5.130  0.0000E+00  0.8000E+01
  -5.120  0.0000E+00  0.8000E+01
  -5.110  0.0000E+00  0.8000E+01
  -5.100  0.0000E+00  0.8000E+01
  -5.090  0.0000E+00  0.8000E+01
  -5.080  0.0000E+00  0.8000E+01
  -5.070  0.0000E+00  0.8000E+01
  -5.060  0.0000E+00  0.8000E+01
  -5.050  0.0000E+00  0.8000E+01
  -5.040  0.0000E+00  0.8000E+01
  -5.030  0.0000E+00  0.8000E+01
  -5.020  0.0000E+00  0.8000E+01
  -5.010  0.0000E+00  0.8000E+01
  -5.000  0.0000E+00  0.8000E+01
  -4.990  0.0000E+00  0.8000E+01
  -4.980  0.0000E+00  0.8000E+01
  -4.970  0.0000E+00  0.8000E+01
  -4.960  0.0000E+00  0.8000E+01
  -4.950  0.0000E+00  0.8000E+01
  -4.940  0.0000E+00  0.8000E+01
  -4.930  0.0000E+00  0.8000E+01
  -4.920  0.0000E+00  0.8000E+01
  -4.910  0.0000E+00  0.8000E+01
  -4.900  0.0000E+00  0.8000E+01
  -4.890  0.0000E+00  0.8000E+01
  -4.880  0.0000E+00  0.8000E+01
  -4.870  0.0000E+00  0.8000E+01
  -4.860  0.0000E+00  0.8000E+01
  -4.850  0.0000E+00  0.8000E+01
  -4.840  0.0000E+00  0.8000E+01
  -4.830  0.0000E+00  0.8000E+01
  -4.820  0.0000E+00  0.8000E+01
  -4.810  0.0000E+00  0.8000E+01
  -4.800  0.0000E+00  0.8000E+01
  -4.790  0.0000E+00  0.8000E+01
  -4.780  0.0000E+00  0.8000E+01
  -4.770  0.0000E+00  0.8000E+01
  -4.760  0.0000E+00  0.8000E+01
  -4.750  0.0000E+00  0.8000E+01
  -4.740  0.0000E+00  0.8000E+01
  -4.730  0.0000E+00  0.8000E+01
  -4.720  0.0000E+00  0.8000E+01
  -4.710  0.0000E+00  0.8000E+01
  -4.700  0.0000E+00  0.8000E+01
  -4.690  0.0000E+00  0.8000E+01
  -4.680  0.0000E+00  0.8000E+01
  -4.670  0.0000E+00  0.8000E+01
  -4.660  0.0000E+00  0.8000E+01
  -4.650  0.0000E+00  0.8000E+01
  -4.640  0.0000E+00  0.8000E+01
  -4.630  0.0000E+00  0.8000E+01
  -4.620  0.0000E+00  0.8000E+01
  -4.610  0.0000E+00  0.8000E+01
  -4.600  0.0000E+00  0.8000E+01
  -4.590  0.0000E+00  0.8000E+01
  -4.580  0.0000E+00  0.8000E+01
  -4.570  0.0000E+00  0.8000E+01
  -4.560  0.0000E+00  0.8000E+01
  -4.550  0.0000E+00  0.8000E+01
  -4.540  0.0000E+00  0.8000E+01
  -4.530  0.0000E+00  0.8000E+01
  -4.520  0.0000E+00  0.8000E+01
  -4.510  0.0000E+00  0.8000E+01
  -4.500  0.0000E+00  0.8000E+01
  -4.490  0.0000E+00  0.8000E+01
  -4.480  0.0000E+00  0.8000E+01
  -4.470  0.0000E+00  0.8000E+01
  -4.460  0.0000E+00  0.8000E+01
  -4.450  0.0000E+00  0.8000E+01
  -4.440  0.0000E+00  0.8000E+01
  -4.430  0.0000E+00  0.8000E+01
  -4.420  0.0000E+00  0.8000E+01
  -4.410  0.0000E+00  0.8000E+01
  -4.400  0.0000E+00  0.8000E+01
  -4.390  0.0000E+00  0.8000E+01
  -4.380  0.0000E+00  0.8000E+01
  -4.370  0.0000E+00  0.8000E+01
  -4.360  0.0000E+00  0.8000E+01
  -4.350  0.0000E+00  0.8000E+01
  -4.340  0.0000E+00  0.8000E+01
  -4.330  0.0000E+00  0.8000E+01
  -4.320  0.0000E+00  0.8000E+01
  -4.310  0.0000E+00  0.8000E+01
  -4.300  0.0000E+00  0.8000E+01
  -4.290  0.0000E+00  0.8000E+01
  -4.280  0.0000E+00  0.8000E+01
  -4.270  0.0000E+00  0.8000E+01
  -4.260  0.0000E+00  0.8000E+01
  -4.250  0.0000E+00  0.8000E+01
  -4.240  0.0000E+00  0.8000E+01
  -4.230  0.0000E+00  0.8000E+01
  -4.220  0.0000E+00  0.8000E+01
  -4.210  0.0000E+00  0.8000E+01
  -4.200  0.0000E+00  0.8000E+01
  -4.190  0.0000E+00  0.8000E+01
  -4.180  0.0000E+00  0.8000E+01
  -4.170  0.0000E+00  0.8000E+01
  -4.160  0.0000E+00  0.8000E+01
  -4.150  0.0000E+00  0.8000E+01
  -4.140  0.0000E+00  0.8000E+01
  -4.130  0.0000E+00  0.8000E+01
  -4.120  0.0000E+00  0.8000E+01
  -4.110  0.0000E+00  0.8000E+01
  -4.100  0.0000E+00  0.8000E+01
  -4.090  0.0000E+00  0.8000E+01
  -4.080  0.0000E+00  0.8000E+01
  -4.070  0.0000E+00  0.8000E+01
  -4.060  0.0000E+00  0.8000E+01
  -4.050  0.0000E+00  0.8000E+01
  -4.040  0.0000E+00  0.8000E+01
  -4.030  0.0000E+00  0.8000E+01
  -4.020  0.0000E+00  0.8000E+01
  -4.010  0.0000E+00  0.8000E+01
  -4.000  0.0000E+00  0.8000E+01
  -3.990  0.0000E+00  0.8000E+01
  -3.980  0.0000E+00  0.8000E+01
  -3.970  0.0000E+00  0.8000E+01
  -3.960  0.0000E+00  0.8000E+01
  -3.950  0.0000E+00  0.8000E+01
  -3.940  0.0000E+00  0.8000E+01
  -3.930  0.0000E+00  0.8000E+01
  -3.920  0.0000E+00  0.8000E+01
  -3.910  0.0000E+00  0.8000E+01
  -3.900  0.0000E+00  0.8000E+01
  -3.890  0.0000E+00  0.8000E+01
  -3.880  0.0000E+00  0.8000E+01
  -3.870  0.0000E+00  0.8000E+01
  -3.860  0.0000E+00  0.8000E+01
  -3.850  0.0000E+00  0.8000E+01
  -3.840  0.0000E+00  0.8000E+01
  -3.830  0.0000E+00  0.8000E+01
  -3.820  0.0000E+00  0.8000E+01
  -3.810  0.0000E+00  0.8000E+01
  -3.800  0.0000E+00  0.8000E+01
  -3.790  0.0000E+00  0.8000E+01
  -3.780  0.0000E+00  0.8000E+01
  -3.770  0.0000E+00  0.8000E+01
  -3.760  0.0000E+00  0.8000E+01
  -3.750  0.0000E+00  0.8000E+01
  -3.740  0.0000E+00  0.8000E+01
  -3.730  0.0000E+00  0.8000E+01
  -3.720  0.0000E+00  0.8000E+01
  -3.710  0.0000E+00  0.8000E+01
  -3.700  0.0000E+00  0.8000E+01
  -3.690  0.0000E+00  0.8000E+01
  -3.680  0.0000E+00  0.8000E+01
  -3.670  0.0000E+00  0.8000E+01
  -3.660  0.0000E+00  0.8000E+01
  -3.650  0.0000E+00  0.8000E+01
  -3.640  0.0000E+00  0.8000E+01
  -3.630  0.0000E+00  0.8000E+01
  -3.620  0.0000E+00  0.8000E+01
  -3.610  0.0000E+00  0.8000E+01
  -3.600  0.0000E+00  0.8000E+01
  -3.590  0.0000E+00  0.8000E+01
  -3.580  0.0000E+00  0.8000E+01
  -3.570  0.0000E+00  0.8000E+01
  -3.560  0.0000E+00  0.8000E+01
  -3.550  0.0000E+00  0.8000E+01
  -3.540  0.0000E+00  0.8000E+01
  -3.530  0.0000E+00  0.8000E+01
  -3.520  0.0000E+00  0.8000E+01
  -3.510  0.0000E+00  0.8000E+01
  -3.500  0.0000E+00  0.8000E+01
  -3.490  0.0000E+00  0.8000E+01
  -3.480  0.0000E+00  0.8000E+01
  -3.470  0.0000E+00  0.8000E+01
  -3.460  0.0000E+00  0.8000E+01
  -3.450  0.0000E+00  0.8000E+01
  -3.440  0.0000E+00  0.8000E+01
  -3.430  0.0000E+00  0.8000E+01
  -3.420  0.0000E+00  0.8000E+01
  -3.410  0.0000E+00  0.8000E+01
  -3.400  0.0000E+00  0.8000E+01
  -3.390  0.0000E+00  0.8000E+01
  -3.380  0.0000E+00  0.8000E+01
  -3.370  0.0000E+00  0.8000E+01
  -3.360  0.0000E+00  0.8000E+01
  -3.350  0.0000E+00  0.8000E+01
  -3.340  0.0000E+00  0.8000E+01
  -3.330  0.0000E+00  0.8000E+01
  -3.320  0.0000E+00  0.8000E+01
  -3.310  0.0000E+00  0.8000E+01
  -3.300  0.0000E+00  0.8000E+01
  -3.290  0.0000E+00  0.8000E+01
  -3.280  0.0000E+00  0.8000E+01
  -3.270  0.0000E+00  0.8000E+01
  -3.260  0.0000E+00  0.8000E+01
  -3.250  0.0000E+00  0.8000E+01
  -3.240  0.0000E+00  0.8000E+01
  -3.230  0.0000E+00  0.8000E+01
  -3.220  0.0000E+00  0.8000E+01
  -3.210  0.0000E+00  0.8000E+01
  -3.200  0.0000E+00  0.8000E+01
  -3.190  0.0000E+00  0.8000E+01
  -3.180  0.0000E+00  0.8000E+01
  -3.170  0.0000E+00  0.8000E+01
  -3.160  0.0000E+00  0.8000E+01
  -3.150  0.0000E+00  0.8000E+01
  -3.140  0.0000E+00  0.8000E+01
  -3.130  0.0000E+00  0.8000E+01
  -3.120  0.0000E+00  0.8000E+01
  -3.110  0.0000E+00  0.8000E+01
  -3.100  0.0000E+00  0.8000E+01
  -3.090  0.0000E+00  0.8000E+01
  -3.080  0.0000E+00  0.8000E+01
  -3.070  0.0000E+00  0.8000E+01
  -3.060  0.0000E+00  0.8000E+01
  -3.050  0.0000E+00  0.8000E+01
  -3.040  0.0000E+00  0.8000E+01
  -3.030  0.0000E+00  0.8000E+01
  -3.020  0.0000E+00  0.8000E+01
  -3.010  0.0000E+00  0.8000E+01
  -3.000  0.0000E+00  0.8000E+01
  -2.990  0.0000E+00  0.8000E+01
  -2.980  0.0000E+00  0.8000E+01
  -2.970  0.0000E+00  0.8000E+01
  -2.960  0.0000E+00  0.8000E+01
  -2.950  0.0000E+00  0.8000E+01
  -2.940  0.0000E+00  0.8000E+01
  -2.930  0.0000E+00  0.8000E+01
  -2.920  0.0000E+00  0.8000E+01
  -2.910  0.0000E+00  0.8000E+01
  -2.900  0.0000E+00  0.8000E+01
  -2.890  0.0000E+00  0.8000E+01
  -2.880  0.0000E+00  0.8000E+01
  -2.870  0.0000E+00  0.8000E+01
  -2.860  0.0000E+00  0.8000E+01
  -2.850  0.0000E+00  0.8000E+01
  -2.840  0.0000E+00  0.8000E+01
  -2.830  0.0000E+00  0.8000E+01
  -2.820  0.0000E+00  0.8000E+01
  -2.810  0.0000E+00  0.8000E+01
  -2.800  0.0000E+00  0.8000E+01
  -2.790  0.0000E+00  0.8000E+01
  -2.780  0.0000E+00  0.8000E+01
  -2.770  0.0000E+00  0.8000E+01
  -2.760  0.0000E+00  0.8000E+01
  -2.750  0.0000E+00  0.8000E+01
  -2.740  0.0000E+00  0.8000E+01
  -2.730  0.0000E+00  0.8000E+01
  -2.720  0.0000E+00  0.8000E+01
  -2.710  0.0000E+00  0.8000E+01
  -2.700  0.0000E+00  0.8000E+01
  -2.690  0.0000E+00  0.8000E+01
  -2.680  0.0000E+00  0.8000E+01
  -2.670  0.0000E+00  0.8000E+01
  -2.660  0.0000E+00  0.8000E+01
  -2.650  0.0000E+00  0.8000E+01
  -2.640  0.0000E+00  0.8000E+01
  -2.630  0.0000E+00  0.8000E+01
  -2.620  0.0000E+00  0.8000E+01
  -2.610  0.0000E+00  0.8000E+01
  -2.600  0.0000E+00  0.8000E+01
  -2.590  0.0000E+00  0.8000E+01
  -2.580  0.0000E+00  0.8000E+01
  -2.570  0.0000E+00  0.8000E+01
  -2.560  0.0000E+00  0.8000E+01
  -2.550  0.0000E+00  0.8000E+01
  -2.540  0.0000E+00  0.8000E+01
  -2.530  0.0000E+00  0.8000E+01
  -2.520  0.0000E+00  0.8000E+01
  -2.510  0.0000E+00  0.8000E+01
  -2.500  0.0000E+00  0.8000E+01
  -2.490  0.0000E+00  0.8000E+01
  -2.480  0.0000E+00  0.8000E+01
  -2.470  0.0000E+00  0.8000E+01
  -2.460  0.0000E+00  0.8000E+01
  -2.450  0.0000E+00  0.8000E+01
  -2.440  0.0000E+00  0.8000E+01
  -2.430  0.0000E+00  0.8000E+01
  -2.420  0.0000E+00  0.8000E+01
  -2.410  0.0000E+00  0.8000E+01
  -2.400  0.0000E+00  0.8000E+01
  -2.390  0.0000E+00  0.8000E+01
  -2.380  0.0000E+00  0.8000E+01
  -2.370  0.0000E+00  0.8000E+01
  -2.360  0.0000E+00  0.8000E+01
  -2.350  0.0000E+00  0.8000E+01
  -2.340  0.0000E+00  0.8000E+01
  -2.330  0.0000E+00  0.8000E+01
  -2.320  0.0000E+00  0.8000E+01
  -2.310  0.0000E+00  0.8000E+01
  -2.300  0.6776E-01  0.8000E+01
  -2.290  0.2111E+00  0.8001E+01
  -2.280  0.4238E+00  0.8005E+01
  -2.270  0.4853E+00  0.8010E+01
  -2.260  0.4680E+00  0.8014E+01
  -2.250  0.4865E+00  0.8019E+01
  -2.240  0.6209E+00  0.8024E+01
  -2.230  0.1122E+01  0.8032E+01
  -2.220  0.2697E+01  0.8053E+01
  -2.210  0.2431E+01  0.8078E+01
  -2.200  0.2624E+01  0.8103E+01
  -2.190  0.2784E+01  0.8130E+01
  -2.180  0.2486E+01  0.8155E+01
  -2.170  0.2559E+01  0.8180E+01
  -2.160  0.2718E+01  0.8207E+01
  -2.150  0.2610E+01  0.8234E+01
  -2.140  0.2589E+01  0.8259E+01
  -2.130  0.2641E+01  0.8286E+01
  -2.120  0.2562E+01  0.8311E+01
  -2.110  0.2631E+01  0.8337E+01
  -2.100  0.2720E+01  0.8364E+01
  -2.090  0.2709E+01  0.8391E+01
  -2.080  0.2687E+01  0.8418E+01
  -2.070  0.2592E+01  0.8445E+01
  -2.060  0.2616E+01  0.8471E+01
  -2.050  0.2679E+01  0.8497E+01
  -2.040  0.2753E+01  0.8524E+01
  -2.030  0.2774E+01  0.8552E+01
  -2.020  0.2766E+01  0.8580E+01
  -2.010  0.2701E+01  0.8607E+01
  -2.000  0.2680E+01  0.8634E+01
  -1.990  0.2717E+01  0.8661E+01
  -1.980  0.2780E+01  0.8688E+01
  -1.970  0.2799E+01  0.8716E+01
  -1.960  0.2772E+01  0.8744E+01
  -1.950  0.2802E+01  0.8772E+01
  -1.940  0.2840E+01  0.8800E+01
  -1.930  0.3356E+01  0.8830E+01
  -1.920  0.4485E+01  0.8870E+01
  -1.910  0.4289E+01  0.8914E+01
  -1.900  0.4611E+01  0.8958E+01
  -1.890  0.4488E+01  0.9004E+01
  -1.880  0.4333E+01  0.9047E+01
  -1.870  0.4453E+01  0.9091E+01
  -1.860  0.4624E+01  0.9136E+01
  -1.850  0.4588E+01  0.9182E+01
  -1.840  0.4578E+01  0.9228E+01
  -1.830  0.4549E+01  0.9274E+01
  -1.820  0.4515E+01  0.9319E+01
  -1.810  0.4598E+01  0.9364E+01
  -1.800  0.4669E+01  0.9411E+01
  -1.790  0.4705E+01  0.9458E+01
  -1.780  0.4662E+01  0.9505E+01
  -1.770  0.4644E+01  0.9551E+01
  -1.760  0.4730E+01  0.9598E+01
  -1.750  0.4796E+01  0.9646E+01
  -1.740  0.4844E+01  0.9694E+01
  -1.730  0.4820E+01  0.9742E+01
  -1.720  0.4906E+01  0.9791E+01
  -1.710  0.4877E+01  0.9840E+01
  -1.700  0.4862E+01  0.9889E+01
  -1.690  0.4927E+01  0.9937E+01
  -1.680  0.5021E+01  0.9987E+01
  -1.670  0.5044E+01  0.1004E+02
  -1.660  0.5062E+01  0.1009E+02
  -1.650  0.5133E+01  0.1014E+02
  -1.640  0.5200E+01  0.1019E+02
  -1.630  0.5279E+01  0.1024E+02
  -1.620  0.5292E+01  0.1030E+02
  -1.610  0.5327E+01  0.1035E+02
  -1.600  0.5363E+01  0.1040E+02
  -1.590  0.5442E+01  0.1046E+02
  -1.580  0.5522E+01  0.1051E+02
  -1.570  0.5613E+01  0.1057E+02
  -1.560  0.5706E+01  0.1062E+02
  -1.550  0.5893E+01  0.1068E+02
  -1.540  0.6026E+01  0.1074E+02
  -1.530  0.6080E+01  0.1080E+02
  -1.520  0.6249E+01  0.1086E+02
  -1.510  0.6452E+01  0.1093E+02
  -1.500  0.6778E+01  0.1099E+02
  -1.490  0.8905E+01  0.1107E+02
  -1.480  0.7427E+01  0.1114E+02
  -1.470  0.6988E+01  0.1122E+02
  -1.460  0.6598E+01  0.1129E+02
  -1.450  0.6458E+01  0.1135E+02
  -1.440  0.6257E+01  0.1141E+02
  -1.430  0.6315E+01  0.1148E+02
  -1.420  0.6143E+01  0.1154E+02
  -1.410  0.6067E+01  0.1160E+02
  -1.400  0.6028E+01  0.1166E+02
  -1.390  0.5953E+01  0.1172E+02
  -1.380  0.6180E+01  0.1178E+02
  -1.370  0.5995E+01  0.1184E+02
  -1.360  0.5978E+01  0.1190E+02
  -1.350  0.5965E+01  0.1196E+02
  -1.340  0.5610E+01  0.1202E+02
  -1.330  0.5720E+01  0.1208E+02
  -1.320  0.5828E+01  0.1213E+02
  -1.310  0.5902E+01  0.1219E+02
  -1.300  0.5985E+01  0.1225E+02
  -1.290  0.6136E+01  0.1231E+02
  -1.280  0.6391E+01  0.1237E+02
  -1.270  0.6597E+01  0.1244E+02
  -1.260  0.6822E+01  0.1251E+02
  -1.250  0.7251E+01  0.1258E+02
  -1.240  0.8107E+01  0.1265E+02
  -1.230  0.8285E+01  0.1274E+02
  -1.220  0.9234E+01  0.1282E+02
  -1.210  0.8300E+01  0.1291E+02
  -1.200  0.8140E+01  0.1300E+02
  -1.190  0.7766E+01  0.1307E+02
  -1.180  0.8086E+01  0.1315E+02
  -1.170  0.7546E+01  0.1323E+02
  -1.160  0.6969E+01  0.1331E+02
  -1.150  0.6514E+01  0.1337E+02
  -1.140  0.6046E+01  0.1344E+02
  -1.130  0.5627E+01  0.1349E+02
  -1.120  0.5588E+01  0.1355E+02
  -1.110  0.5192E+01  0.1360E+02
  -1.100  0.4279E+01  0.1365E+02
  -1.090  0.2516E+01  0.1369E+02
  -1.080  0.2156E+01  0.1371E+02
  -1.070  0.1966E+01  0.1373E+02
  -1.060  0.1867E+01  0.1375E+02
  -1.050  0.1613E+01  0.1377E+02
  -1.040  0.1400E+01  0.1378E+02
  -1.030  0.1374E+01  0.1380E+02
  -1.020  0.1348E+01  0.1381E+02
  -1.010  0.1317E+01  0.1382E+02
  -1.000  0.1288E+01  0.1384E+02
  -0.990  0.1275E+01  0.1385E+02
  -0.980  0.1262E+01  0.1386E+02
  -0.970  0.1250E+01  0.1387E+02
  -0.960  0.1240E+01  0.1389E+02
  -0.950  0.1224E+01  0.1390E+02
  -0.940  0.1202E+01  0.1391E+02
  -0.930  0.1179E+01  0.1392E+02
  -0.920  0.1166E+01  0.1393E+02
  -0.910  0.1156E+01  0.1395E+02
  -0.900  0.1145E+01  0.1396E+02
  -0.890  0.1135E+01  0.1397E+02
  -0.880  0.1124E+01  0.1398E+02
  -0.870  0.1113E+01  0.1399E+02
  -0.860  0.1102E+01  0.1400E+02
  -0.850  0.1089E+01  0.1401E+02
  -0.840  0.1077E+01  0.1402E+02
  -0.830  0.1068E+01  0.1404E+02
  -0.820  0.1059E+01  0.1405E+02
  -0.810  0.1050E+01  0.1406E+02
  -0.800  0.1041E+01  0.1407E+02
  -0.790  0.1032E+01  0.1408E+02
  -0.780  0.1023E+01  0.1409E+02
  -0.770  0.1014E+01  0.1410E+02
  -0.760  0.1002E+01  0.1411E+02
  -0.750  0.9915E+00  0.1412E+02
  -0.740  0.9863E+00  0.1413E+02
  -0.730  0.9840E+00  0.1414E+02
  -0.720  0.9792E+00  0.1415E+02
  -0.710  0.9718E+00  0.1416E+02
  -0.700  0.9643E+00  0.1417E+02
  -0.690  0.9568E+00  0.1418E+02
  -0.680  0.9491E+00  0.1419E+02
  -0.670  0.9412E+00  0.1420E+02
  -0.660  0.9323E+00  0.1420E+02
  -0.650  0.9222E+00  0.1421E+02
  -0.640  0.9159E+00  0.1422E+02
  -0.630  0.9114E+00  0.1423E+02
  -0.620  0.9068E+00  0.1424E+02
  -0.610  0.9023E+00  0.1425E+02
  -0.600  0.8989E+00  0.1426E+02
  -0.590  0.8969E+00  0.1427E+02
  -0.580  0.8932E+00  0.1428E+02
  -0.570  0.8868E+00  0.1429E+02
  -0.560  0.8802E+00  0.1430E+02
  -0.550  0.8734E+00  0.1430E+02
  -0.540  0.8649E+00  0.1431E+02
  -0.530  0.8585E+00  0.1432E+02
  -0.520  0.8543E+00  0.1433E+02
  -0.510  0.8502E+00  0.1434E+02
  -0.500  0.8461E+00  0.1435E+02
  -0.490  0.8420E+00  0.1436E+02
  -0.480  0.1073E+01  0.1437E+02
  -0.470  0.1081E+01  0.1438E+02
  -0.460  0.1088E+01  0.1439E+02
  -0.450  0.1096E+01  0.1440E+02
  -0.440  0.1124E+01  0.1441E+02
  -0.430  0.1161E+01  0.1442E+02
  -0.420  0.1193E+01  0.1443E+02
  -0.410  0.1071E+01  0.1444E+02
  -0.400  0.1080E+01  0.1445E+02
  -0.390  0.1089E+01  0.1447E+02
  -0.380  0.1097E+01  0.1448E+02
  -0.370  0.1106E+01  0.1449E+02
  -0.360  0.1115E+01  0.1450E+02
  -0.350  0.1123E+01  0.1451E+02
  -0.340  0.1132E+01  0.1452E+02
  -0.330  0.1123E+01  0.1453E+02
  -0.320  0.1186E+01  0.1454E+02
  -0.310  0.1228E+01  0.1456E+02
  -0.300  0.1265E+01  0.1457E+02
  -0.290  0.1529E+01  0.1458E+02
  -0.280  0.1589E+01  0.1460E+02
  -0.270  0.1674E+01  0.1461E+02
  -0.260  0.1909E+01  0.1463E+02
  -0.250  0.2009E+01  0.1465E+02
  -0.240  0.1987E+01  0.1467E+02
  -0.230  0.2042E+01  0.1469E+02
  -0.220  0.2070E+01  0.1471E+02
  -0.210  0.1984E+01  0.1473E+02
  -0.200  0.1989E+01  0.1475E+02
  -0.190  0.2000E+01  0.1477E+02
  -0.180  0.2006E+01  0.1479E+02
  -0.170  0.2011E+01  0.1481E+02
  -0.160  0.2026E+01  0.1483E+02
  -0.150  0.2043E+01  0.1485E+02
  -0.140  0.2063E+01  0.1487E+02
  -0.130  0.2194E+01  0.1489E+02
  -0.120  0.2344E+01  0.1492E+02
  -0.110  0.2380E+01  0.1494E+02
  -0.100  0.2456E+01  0.1496E+02
  -0.090  0.2496E+01  0.1499E+02
  -0.080  0.2581E+01  0.1501E+02
  -0.070  0.2642E+01  0.1504E+02
  -0.060  0.2704E+01  0.1507E+02
  -0.050  0.2748E+01  0.1509E+02
  -0.040  0.2747E+01  0.1512E+02
  -0.030  0.2758E+01  0.1515E+02
  -0.020  0.2775E+01  0.1518E+02
  -0.010  0.2799E+01  0.1520E+02
   0.000  0.2810E+01  0.1523E+02
   0.010  0.2821E+01  0.1526E+02
   0.020  0.2823E+01  0.1529E+02
   0.030  0.2846E+01  0.1532E+02
   0.040  0.3078E+01  0.1535E+02
   0.050  0.3408E+01  0.1538E+02
   0.060  0.3929E+01  0.1542E+02
   0.070  0.4115E+01  0.1546E+02
   0.080  0.4128E+01  0.1550E+02
   0.090  0.4118E+01  0.1554E+02
   0.100  0.4308E+01  0.1558E+02
   0.110  0.4888E+01  0.1563E+02
   0.120  0.5210E+01  0.1568E+02
   0.130  0.5481E+01  0.1573E+02
   0.140  0.5581E+01  0.1579E+02
   0.150  0.5618E+01  0.1584E+02
   0.160  0.5769E+01  0.1590E+02
   0.170  0.5829E+01  0.1596E+02
   0.180  0.5885E+01  0.1602E+02
   0.190  0.5925E+01  0.1608E+02
   0.200  0.6074E+01  0.1614E+02
   0.210  0.6192E+01  0.1620E+02
   0.220  0.6267E+01  0.1626E+02
   0.230  0.6439E+01  0.1632E+02
   0.240  0.6591E+01  0.1639E+02
   0.250  0.6868E+01  0.1646E+02
   0.260  0.7445E+01  0.1653E+02
   0.270  0.7547E+01  0.1660E+02
   0.280  0.7832E+01  0.1668E+02
   0.290  0.8240E+01  0.1676E+02
   0.300  0.8328E+01  0.1684E+02
   0.310  0.8072E+01  0.1692E+02
   0.320  0.7652E+01  0.1700E+02
   0.330  0.7028E+01  0.1708E+02
   0.340  0.6557E+01  0.1714E+02
   0.350  0.6475E+01  0.1721E+02
   0.360  0.6899E+01  0.1728E+02
   0.370  0.7054E+01  0.1735E+02
   0.380  0.7113E+01  0.1742E+02
   0.390  0.6697E+01  0.1749E+02
   0.400  0.6356E+01  0.1755E+02
   0.410  0.5458E+01  0.1761E+02
   0.420  0.4885E+01  0.1767E+02
   0.430  0.4411E+01  0.1771E+02
   0.440  0.4064E+01  0.1775E+02
   0.450  0.3896E+01  0.1779E+02
   0.460  0.3863E+01  0.1783E+02
   0.470  0.3833E+01  0.1787E+02
   0.480  0.3807E+01  0.1791E+02
   0.490  0.3787E+01  0.1795E+02
   0.500  0.3798E+01  0.1799E+02
   0.510  0.3826E+01  0.1802E+02
   0.520  0.3842E+01  0.1806E+02
   0.530  0.3858E+01  0.1810E+02
   0.540  0.3875E+01  0.1814E+02
   0.550  0.3898E+01  0.1818E+02
   0.560  0.3924E+01  0.1822E+02
   0.570  0.3949E+01  0.1826E+02
   0.580  0.4040E+01  0.1830E+02
   0.590  0.4160E+01  0.1834E+02
   0.600  0.4291E+01  0.1838E+02
   0.610  0.4428E+01  0.1842E+02
   0.620  0.4783E+01  0.1847E+02
   0.630  0.4647E+01  0.1852E+02
   0.640  0.4652E+01  0.1856E+02
   0.650  0.4323E+01  0.1861E+02
   0.660  0.4157E+01  0.1865E+02
   0.670  0.4002E+01  0.1869E+02
   0.680  0.3809E+01  0.1873E+02
   0.690  0.3535E+01  0.1877E+02
   0.700  0.3379E+01  0.1880E+02
   0.710  0.3305E+01  0.1883E+02
   0.720  0.3278E+01  0.1887E+02
   0.730  0.3266E+01  0.1890E+02
   0.740  0.3230E+01  0.1893E+02
   0.750  0.3223E+01  0.1896E+02
   0.760  0.3261E+01  0.1900E+02
   0.770  0.3310E+01  0.1903E+02
   0.780  0.3293E+01  0.1906E+02
   0.790  0.3268E+01  0.1909E+02
   0.800  0.3294E+01  0.1913E+02
   0.810  0.3366E+01  0.1916E+02
   0.820  0.3457E+01  0.1920E+02
   0.830  0.3726E+01  0.1923E+02
   0.840  0.3592E+01  0.1927E+02
   0.850  0.3812E+01  0.1930E+02
   0.860  0.4061E+01  0.1934E+02
   0.870  0.4371E+01  0.1939E+02
   0.880  0.4780E+01  0.1943E+02
   0.890  0.5577E+01  0.1948E+02
   0.900  0.5832E+01  0.1954E+02
   0.910  0.6084E+01  0.1960E+02
   0.920  0.6032E+01  0.1966E+02
   0.930  0.6155E+01  0.1972E+02
   0.940  0.6424E+01  0.1978E+02
   0.950  0.5794E+01  0.1985E+02
   0.960  0.5539E+01  0.1990E+02
   0.970  0.4932E+01  0.1995E+02
   0.980  0.4385E+01  0.2000E+02
   0.990  0.4000E+01  0.2004E+02
   1.000  0.4316E+01  0.2008E+02
   1.010  0.4368E+01  0.2013E+02
   1.020  0.4586E+01  0.2017E+02
   1.030  0.4723E+01  0.2022E+02
   1.040  0.4896E+01  0.2027E+02
   1.050  0.5138E+01  0.2032E+02
   1.060  0.5310E+01  0.2037E+02
   1.070  0.5396E+01  0.2042E+02
   1.080  0.5551E+01  0.2048E+02
   1.090  0.5774E+01  0.2053E+02
   1.100  0.5796E+01  0.2059E+02
   1.110  0.5769E+01  0.2065E+02
   1.120  0.5688E+01  0.2071E+02
   1.130  0.5622E+01  0.2076E+02
   1.140  0.5485E+01  0.2082E+02
   1.150  0.5402E+01  0.2087E+02
   1.160  0.5355E+01  0.2093E+02
   1.170  0.5343E+01  0.2098E+02
   1.180  0.5367E+01  0.2103E+02
   1.190  0.5389E+01  0.2109E+02
   1.200  0.5438E+01  0.2114E+02
   1.210  0.5486E+01  0.2120E+02
   1.220  0.5546E+01  0.2125E+02
   1.230  0.5585E+01  0.2131E+02
   1.240  0.5641E+01  0.2136E+02
   1.250  0.5688E+01  0.2142E+02
   1.260  0.5719E+01  0.2148E+02
   1.270  0.5811E+01  0.2153E+02
   1.280  0.5939E+01  0.2159E+02
   1.290  0.5982E+01  0.2165E+02
   1.300  0.6084E+01  0.2171E+02
   1.310  0.6286E+01  0.2177E+02
   1.320  0.6399E+01  0.2184E+02
   1.330  0.6554E+01  0.2190E+02
   1.340  0.6600E+01  0.2197E+02
   1.350  0.6737E+01  0.2204E+02
   1.360  0.6809E+01  0.2210E+02
   1.370  0.6854E+01  0.2217E+02
   1.380  0.6813E+01  0.2224E+02
   1.390  0.6693E+01  0.2231E+02
   1.400  0.6393E+01  0.2237E+02
   1.410  0.6189E+01  0.2244E+02
   1.420  0.5936E+01  0.2250E+02
   1.430  0.5779E+01  0.2255E+02
   1.440  0.5638E+01  0.2261E+02
   1.450  0.5482E+01  0.2267E+02
   1.460  0.5468E+01  0.2272E+02
   1.470  0.5519E+01  0.2278E+02
   1.480  0.5464E+01  0.2283E+02
   1.490  0.5463E+01  0.2289E+02
   1.500  0.5483E+01  0.2294E+02
   1.510  0.5481E+01  0.2300E+02
   1.520  0.5450E+01  0.2305E+02
   1.530  0.5516E+01  0.2311E+02
   1.540  0.5513E+01  0.2316E+02
   1.550  0.5695E+01  0.2322E+02
   1.560  0.5441E+01  0.2327E+02
   1.570  0.5028E+01  0.2333E+02
   1.580  0.5148E+01  0.2338E+02
   1.590  0.5205E+01  0.2343E+02
   1.600  0.5169E+01  0.2348E+02
   1.610  0.5159E+01  0.2353E+02
   1.620  0.5187E+01  0.2358E+02
   1.630  0.5261E+01  0.2364E+02
   1.640  0.5317E+01  0.2369E+02
   1.650  0.5436E+01  0.2374E+02
   1.660  0.5624E+01  0.2380E+02
   1.670  0.5621E+01  0.2385E+02
   1.680  0.5719E+01  0.2391E+02
   1.690  0.5919E+01  0.2397E+02
   1.700  0.6208E+01  0.2403E+02
   1.710  0.6405E+01  0.2409E+02
   1.720  0.6766E+01  0.2416E+02
   1.730  0.7112E+01  0.2423E+02
   1.740  0.7408E+01  0.2430E+02
   1.750  0.6746E+01  0.2437E+02
   1.760  0.5735E+01  0.2444E+02
   1.770  0.5697E+01  0.2449E+02
   1.780  0.6189E+01  0.2455E+02
   1.790  0.6788E+01  0.2462E+02
   1.800  0.6090E+01  0.2469E+02
   1.810  0.5078E+01  0.2474E+02
   1.820  0.4566E+01  0.2479E+02
   1.830  0.4702E+01  0.2483E+02
   1.840  0.4837E+01  0.2488E+02
   1.850  0.4999E+01  0.2493E+02
   1.860  0.5301E+01  0.2498E+02
   1.870  0.5687E+01  0.2504E+02
   1.880  0.6006E+01  0.2510E+02
   1.890  0.6272E+01  0.2516E+02
   1.900  0.6242E+01  0.2522E+02
   1.910  0.6217E+01  0.2528E+02
   1.920  0.6343E+01  0.2535E+02
   1.930  0.6801E+01  0.2541E+02
   1.940  0.6960E+01  0.2548E+02
   1.950  0.6593E+01  0.2555E+02
   1.960  0.6151E+01  0.2561E+02
   1.970  0.5965E+01  0.2567E+02
   1.980  0.5832E+01  0.2573E+02
   1.990  0.5760E+01  0.2579E+02
   2.000  0.5668E+01  0.2585E+02
   2.010  0.5640E+01  0.2590E+02
   2.020  0.5580E+01  0.2596E+02
   2.030  0.5500E+01  0.2602E+02
   2.040  0.5516E+01  0.2607E+02
   2.050  0.5419E+01  0.2613E+02
   2.060  0.5351E+01  0.2618E+02
   2.070  0.5357E+01  0.2623E+02
   2.080  0.4886E+01  0.2628E+02
   2.090  0.3090E+01  0.2632E+02
   2.100  0.3092E+01  0.2635E+02
   2.110  0.3092E+01  0.2638E+02
   2.120  0.3097E+01  0.2641E+02
   2.130  0.3108E+01  0.2645E+02
   2.140  0.3125E+01  0.2648E+02
   2.150  0.3143E+01  0.2651E+02
   2.160  0.3168E+01  0.2654E+02
   2.170  0.3184E+01  0.2657E+02
   2.180  0.3199E+01  0.2660E+02
   2.190  0.3213E+01  0.2664E+02
   2.200  0.3227E+01  0.2667E+02
   2.210  0.3241E+01  0.2670E+02
   2.220  0.3256E+01  0.2673E+02
   2.230  0.3271E+01  0.2677E+02
   2.240  0.3292E+01  0.2680E+02
   2.250  0.3320E+01  0.2683E+02
   2.260  0.3349E+01  0.2686E+02
   2.270  0.3374E+01  0.2690E+02
   2.280  0.3395E+01  0.2693E+02
   2.290  0.3415E+01  0.2697E+02
   2.300  0.3435E+01  0.2700E+02
   2.310  0.3457E+01  0.2703E+02
   2.320  0.3486E+01  0.2707E+02
   2.330  0.3529E+01  0.2710E+02
   2.340  0.3562E+01  0.2714E+02
   2.350  0.3593E+01  0.2718E+02
   2.360  0.3624E+01  0.2721E+02
   2.370  0.3663E+01  0.2725E+02
   2.380  0.3701E+01  0.2729E+02
   2.390  0.3746E+01  0.2732E+02
   2.400  0.3805E+01  0.2736E+02
   2.410  0.3852E+01  0.2740E+02
   2.420  0.3897E+01  0.2744E+02
   2.430  0.3941E+01  0.2748E+02
   2.440  0.3989E+01  0.2752E+02
   2.450  0.4072E+01  0.2756E+02
   2.460  0.4176E+01  0.2760E+02
   2.470  0.4266E+01  0.2764E+02
   2.480  0.4356E+01  0.2768E+02
   2.490  0.4446E+01  0.2773E+02
   2.500  0.4534E+01  0.2777E+02
   2.510  0.4671E+01  0.2782E+02
   2.520  0.5041E+01  0.2787E+02
   2.530  0.5184E+01  0.2792E+02
   2.540  0.5444E+01  0.2797E+02
   2.550  0.5628E+01  0.2803E+02
   2.560  0.5589E+01  0.2808E+02
   2.570  0.5430E+01  0.2814E+02
   2.580  0.5403E+01  0.2819E+02
   2.590  0.5359E+01  0.2824E+02
   2.600  0.5648E+01  0.2830E+02
   2.610  0.5603E+01  0.2836E+02
   2.620  0.5342E+01  0.2841E+02
   2.630  0.4959E+01  0.2846E+02
   2.640  0.4893E+01  0.2851E+02
   2.650  0.4746E+01  0.2856E+02
   2.660  0.4915E+01  0.2861E+02
   2.670  0.4881E+01  0.2866E+02
   2.680  0.4755E+01  0.2870E+02
   2.690  0.4904E+01  0.2875E+02
   2.700  0.4814E+01  0.2880E+02
   2.710  0.4513E+01  0.2885E+02
   2.720  0.4450E+01  0.2889E+02
   2.730  0.4430E+01  0.2894E+02
   2.740  0.4748E+01  0.2898E+02
   2.750  0.4587E+01  0.2903E+02
   2.760  0.5417E+01  0.2908E+02
   2.770  0.3376E+01  0.2912E+02
   2.780  0.3366E+01  0.2915E+02
   2.790  0.3360E+01  0.2919E+02
   2.800  0.3711E+01  0.2922E+02
   2.810  0.3270E+01  0.2926E+02
   2.820  0.3206E+01  0.2929E+02
   2.830  0.3175E+01  0.2932E+02
   2.840  0.3157E+01  0.2935E+02
   2.850  0.3171E+01  0.2938E+02
   2.860  0.3249E+01  0.2942E+02
   2.870  0.3262E+01  0.2945E+02
   2.880  0.3316E+01  0.2948E+02
   2.890  0.3951E+01  0.2952E+02
   2.900  0.4245E+01  0.2956E+02
   2.910  0.4695E+01  0.2960E+02
   2.920  0.4567E+01  0.2965E+02
   2.930  0.4858E+01  0.2970E+02
   2.940  0.5173E+01  0.2975E+02
   2.950  0.5656E+01  0.2980E+02
   2.960  0.5943E+01  0.2986E+02
   2.970  0.4922E+01  0.2991E+02
   2.980  0.4837E+01  0.2996E+02
   2.990  0.4876E+01  0.3001E+02
   3.000  0.4995E+01  0.3006E+02
   3.010  0.4905E+01  0.3011E+02
   3.020  0.5252E+01  0.3016E+02
   3.030  0.5570E+01  0.3021E+02
   3.040  0.5699E+01  0.3027E+02
   3.050  0.5823E+01  0.3033E+02
   3.060  0.5781E+01  0.3039E+02
   3.070  0.6060E+01  0.3045E+02
   3.080  0.7533E+01  0.3051E+02
   3.090  0.6910E+01  0.3058E+02
   3.100  0.6467E+01  0.3065E+02
   3.110  0.6328E+01  0.3071E+02
   3.120  0.6210E+01  0.3078E+02
   3.130  0.6146E+01  0.3084E+02
   3.140  0.6020E+01  0.3090E+02
   3.150  0.5878E+01  0.3096E+02
   3.160  0.5725E+01  0.3102E+02
   3.170  0.5565E+01  0.3107E+02
   3.180  0.5505E+01  0.3113E+02
   3.190  0.5563E+01  0.3118E+02
   3.200  0.5567E+01  0.3124E+02
   3.210  0.7153E+01  0.3130E+02
   3.220  0.7022E+01  0.3137E+02
   3.230  0.7382E+01  0.3145E+02
   3.240  0.7860E+01  0.3152E+02
   3.250  0.8297E+01  0.3160E+02
   3.260  0.8749E+01  0.3169E+02
   3.270  0.8971E+01  0.3178E+02
   3.280  0.8842E+01  0.3187E+02
   3.290  0.8837E+01  0.3195E+02
   3.300  0.8725E+01  0.3204E+02
   3.310  0.8415E+01  0.3213E+02
   3.320  0.8242E+01  0.3221E+02
   3.330  0.8414E+01  0.3229E+02
   3.340  0.8638E+01  0.3238E+02
   3.350  0.9039E+01  0.3247E+02
   3.360  0.9596E+01  0.3256E+02
   3.370  0.1033E+02  0.3266E+02
   3.380  0.1144E+02  0.3277E+02
   3.390  0.1372E+02  0.3289E+02
   3.400  0.1555E+02  0.3304E+02
   3.410  0.1193E+02  0.3317E+02
   3.420  0.1229E+02  0.3329E+02
   3.430  0.1247E+02  0.3342E+02
   3.440  0.1257E+02  0.3354E+02
   3.450  0.1157E+02  0.3366E+02
   3.460  0.1118E+02  0.3378E+02
   3.470  0.1092E+02  0.3389E+02
   3.480  0.1077E+02  0.3400E+02
   3.490  0.1099E+02  0.3410E+02
   3.500  0.1154E+02  0.3422E+02
   3.510  0.1194E+02  0.3434E+02
   3.520  0.1195E+02  0.3446E+02
   3.530  0.1163E+02  0.3458E+02
   3.540  0.1110E+02  0.3469E+02
   3.550  0.9274E+01  0.3479E+02
   3.560  0.6731E+01  0.3487E+02
   3.570  0.6456E+01  0.3494E+02
   3.580  0.6163E+01  0.3500E+02
   3.590  0.5871E+01  0.3506E+02
   3.600  0.3952E+01  0.3511E+02
   3.610  0.2825E+01  0.3515E+02
   3.620  0.2068E+01  0.3517E+02
   3.630  0.2059E+01  0.3519E+02
   3.640  0.2043E+01  0.3521E+02
   3.650  0.2031E+01  0.3523E+02
   3.660  0.2000E+01  0.3525E+02
   3.670  0.2009E+01  0.3527E+02
   3.680  0.2027E+01  0.3529E+02
   3.690  0.2031E+01  0.3531E+02
   3.700  0.2010E+01  0.3533E+02
   3.710  0.2010E+01  0.3535E+02
   3.720  0.2007E+01  0.3537E+02
   3.730  0.1986E+01  0.3539E+02
   3.740  0.1964E+01  0.3541E+02
   3.750  0.1916E+01  0.3543E+02
   3.760  0.1952E+01  0.3545E+02
   3.770  0.1941E+01  0.3547E+02
   3.780  0.1906E+01  0.3549E+02
   3.790  0.1884E+01  0.3551E+02
   3.800  0.1921E+01  0.3553E+02
   3.810  0.1913E+01  0.3555E+02
   3.820  0.1889E+01  0.3556E+02
   3.830  0.1876E+01  0.3558E+02
   3.840  0.1937E+01  0.3560E+02
   3.850  0.1926E+01  0.3562E+02
   3.860  0.1860E+01  0.3564E+02
   3.870  0.1880E+01  0.3566E+02
   3.880  0.1882E+01  0.3568E+02
   3.890  0.1835E+01  0.3570E+02
   3.900  0.1835E+01  0.3572E+02
   3.910  0.1832E+01  0.3573E+02
   3.920  0.1791E+01  0.3575E+02
   3.930  0.1769E+01  0.3577E+02
   3.940  0.1844E+01  0.3579E+02
   3.950  0.1831E+01  0.3581E+02
   3.960  0.1842E+01  0.3582E+02
   3.970  0.1817E+01  0.3584E+02
   3.980  0.1749E+01  0.3586E+02
   3.990  0.1843E+01  0.3588E+02
   4.000  0.1804E+01  0.3590E+02
   4.010  0.1650E+01  0.3591E+02
   4.020  0.1812E+01  0.3593E+02
   4.030  0.1553E+01  0.3595E+02
   4.040  0.1547E+01  0.3596E+02
   4.050  0.1027E+01  0.3598E+02
   4.060  0.8037E+00  0.3599E+02
   4.070  0.5963E+00  0.3600E+02
   4.080  0.1844E+00  0.3600E+02
   4.090  0.0000E+00  0.3600E+02
   4.100  0.0000E+00  0.3600E+02
   4.110  0.0000E+00  0.3600E+02
   4.120  0.0000E+00  0.3600E+02
   4.130  0.0000E+00  0.3600E+02
   4.140  0.0000E+00  0.3600E+02
   4.150  0.0000E+00  0.3600E+02
   4.160  0.0000E+00  0.3600E+02
   4.170  0.0000E+00  0.3600E+02
   4.180  0.0000E+00  0.3600E+02
   4.190  0.0000E+00  0.3600E+02
   4.200  0.0000E+00  0.3600E+02
   4.210  0.0000E+00  0.3600E+02
   4.220  0.0000E+00  0.3600E+02
   4.230  0.0000E+00  0.3600E+02
   4.240  0.0000E+00  0.3600E+02
   4.250  0.0000E+00  0.3600E+02
   4.260  0.0000E+00  0.3600E+02
   4.270  0.0000E+00  0.3600E+02
   4.280  0.0000E+00  0.3600E+02
   4.290  0.0000E+00  0.3600E+02
   4.300  0.0000E+00  0.3600E+02
   4.310  0.0000E+00  0.3600E+02
   4.320  0.0000E+00  0.3600E+02
   4.330  0.0000E+00  0.3600E+02
   4.340  0.0000E+00  0.3600E+02
   4.350  0.0000E+00  0.3600E+02
   4.360  0.0000E+00  0.3600E+02
   4.370  0.0000E+00  0.3600E+02
   4.380  0.0000E+00  0.3600E+02
   4.390  0.0000E+00  0.3600E+02
   4.400  0.0000E+00  0.3600E+02
   4.410  0.0000E+00  0.3600E+02
   4.420  0.0000E+00  0.3600E+02
   4.430  0.0000E+00  0.3600E+02
   4.440  0.0000E+00  0.3600E+02
   4.450  0.0000E+00  0.3600E+02
   4.460  0.0000E+00  0.3600E+02
   4.470  0.0000E+00  0.3600E+02
   4.480  0.0000E+00  0.3600E+02
   4.490  0.0000E+00  0.3600E+02
   4.500  0.0000E+00  0.3600E+02
   4.510  0.0000E+00  0.3600E+02
   4.520  0.0000E+00  0.3600E+02
   4.530  0.0000E+00  0.3600E+02
   4.540  0.0000E+00  0.3600E+02
   4.550  0.0000E+00  0.3600E+02
   4.560  0.0000E+00  0.3600E+02
   4.570  0.0000E+00  0.3600E+02
   4.580  0.0000E+00  0.3600E+02
   4.590  0.0000E+00  0.3600E+02
   4.600  0.0000E+00  0.3600E+02
   4.610  0.0000E+00  0.3600E+02
   4.620  0.0000E+00  0.3600E+02
   4.630  0.0000E+00  0.3600E+02
   4.640  0.0000E+00  0.3600E+02
   4.650  0.0000E+00  0.3600E+02
   4.660  0.0000E+00  0.3600E+02
   4.670  0.0000E+00  0.3600E+02
   4.680  0.0000E+00  0.3600E+02
   4.690  0.0000E+00  0.3600E+02
   4.700  0.0000E+00  0.3600E+02
   4.710  0.0000E+00  0.3600E+02
   4.720  0.0000E+00  0.3600E+02
   4.730  0.0000E+00  0.3600E+02
   4.740  0.0000E+00  0.3600E+02
   4.750  0.0000E+00  0.3600E+02
   4.760  0.0000E+00  0.3600E+02
   4.770  0.0000E+00  0.3600E+02
   4.780  0.0000E+00  0.3600E+02
   4.790  0.0000E+00  0.3600E+02
   4.800  0.0000E+00  0.3600E+02
   4.810  0.0000E+00  0.3600E+02
   4.820  0.0000E+00  0.3600E+02
   4.830  0.0000E+00  0.3600E+02
   4.840  0.0000E+00  0.3600E+02
   4.850  0.0000E+00  0.3600E+02
   4.860  0.0000E+00  0.3600E+02
   4.870  0.0000E+00  0.3600E+02
   4.880  0.0000E+00  0.3600E+02
   4.890  0.0000E+00  0.3600E+02
   4.900  0.0000E+00  0.3600E+02
   4.910  0.0000E+00  0.3600E+02
   4.920  0.0000E+00  0.3600E+02
   4.930  0.0000E+00  0.3600E+02
   4.940  0.0000E+00  0.3600E+02
   4.950  0.0000E+00  0.3600E+02
   4.960  0.0000E+00  0.3600E+02
   4.970  0.0000E+00  0.3600E+02
   4.980  0.0000E+00  0.3600E+02
   4.990  0.0000E+00  0.3600E+02
   5.000  0.0000E+00  0.3600E+02
   5.010  0.0000E+00  0.3600E+02
   5.020  0.0000E+00  0.3600E+02
   5.030  0.0000E+00  0.3600E+02
   5.040  0.0000E+00  0.3600E+02
   5.050  0.0000E+00  0.3600E+02
   5.060  0.0000E+00  0.3600E+02
   5.070  0.0000E+00  0.3600E+02
   5.080  0.0000E+00  0.3600E+02
   5.090  0.0000E+00  0.3600E+02
   5.100  0.0000E+00  0.3600E+02
   5.110  0.0000E+00  0.3600E+02
   5.120  0.0000E+00  0.3600E+02
   5.130  0.0000E+00  0.3600E+02
   5.140  0.0000E+00  0.3600E+02
   5.150  0.0000E+00  0.3600E+02
   5.160  0.0000E+00  0.3600E+02
   5.170  0.0000E+00  0.3600E+02
   5.180  0.0000E+00  0.3600E+02
   5.190  0.0000E+00  0.3600E+02
   5.200  0.0000E+00  0.3600E+02
   5.210  0.0000E+00  0.3600E+02
   5.220  0.0000E+00  0.3600E+02
   5.230  0.0000E+00  0.3600E+02
   5.240  0.0000E+00  0.3600E+02
   5.250  0.0000E+00  0.3600E+02
   5.260  0.0000E+00  0.3600E+02
   5.270  0.0000E+00  0.3600E+02
   5.280  0.0000E+00  0.3600E+02
   5.290  0.0000E+00  0.3600E+02
   5.300  0.0000E+00  0.3600E+02
   5.310  0.0000E+00  0.3600E+02
   5.320  0.0000E+00  0.3600E+02
   5.330  0.0000E+00  0.3600E+02
   5.340  0.0000E+00  0.3600E+02
   5.350  0.0000E+00  0.3600E+02
   5.360  0.0000E+00  0.3600E+02
   5.370  0.0000E+00  0.3600E+02
   5.380  0.0000E+00  0.3600E+02
   5.390  0.0000E+00  0.3600E+02
   5.400  0.0000E+00  0.3600E+02
   5.410  0.0000E+00  0.3600E+02
   5.420  0.0000E+00  0.3600E+02
   5.430  0.0000E+00  0.3600E+02
   5.440  0.0000E+00  0.3600E+02
   5.450  0.0000E+00  0.3600E+02
   5.460  0.0000E+00  0.3600E+02
   5.470  0.0000E+00  0.3600E+02
   5.480  0.0000E+00  0.3600E+02
   5.490  0.0000E+00  0.3600E+02
   5.500  0.0000E+00  0.3600E+02
   5.510  0.0000E+00  0.3600E+02
   5.520  0.0000E+00  0.3600E+02
   5.530  0.0000E+00  0.3600E+02
   5.540  0.2731E+00  0.3600E+02
   5.550  0.5022E+00  0.3601E+02
   5.560  0.5457E+00  0.3601E+02
   5.570  0.6396E+00  0.3602E+02
   5.580  0.6047E+00  0.3602E+02
   5.590  0.5522E+00  0.3603E+02
   5.600  0.6026E+00  0.3603E+02
   5.610  0.5968E+00  0.3604E+02
   5.620  0.6082E+00  0.3605E+02
   5.630  0.6433E+00  0.3605E+02
   5.640  0.6471E+00  0.3606E+02
   5.650  0.6358E+00  0.3606E+02
   5.660  0.6471E+00  0.3607E+02
   5.670  0.6703E+00  0.3608E+02
   5.680  0.6759E+00  0.3608E+02
   5.690  0.6725E+00  0.3609E+02
   5.700  0.6817E+00  0.3610E+02
   5.710  0.7148E+00  0.3611E+02
   5.720  0.7488E+00  0.3611E+02
   5.730  0.7598E+00  0.3612E+02
   5.740  0.7603E+00  0.3613E+02
   5.750  0.7707E+00  0.3614E+02
   5.760  0.7831E+00  0.3614E+02
   5.770  0.9956E+00  0.3615E+02
   5.780  0.1382E+01  0.3616E+02
   5.790  0.1746E+01  0.3618E+02
   5.800  0.1889E+01  0.3620E+02
   5.810  0.1908E+01  0.3622E+02
   5.820  0.1937E+01  0.3624E+02
   5.830  0.2350E+01  0.3626E+02
   5.840  0.2624E+01  0.3628E+02
   5.850  0.2963E+01  0.3631E+02
   5.860  0.2965E+01  0.3634E+02
   5.870  0.3082E+01  0.3637E+02
   5.880  0.3162E+01  0.3640E+02
   5.890  0.3289E+01  0.3644E+02
   5.900  0.3384E+01  0.3647E+02
   5.910  0.3570E+01  0.3650E+02
   5.920  0.3844E+01  0.3654E+02
   5.930  0.4141E+01  0.3658E+02
   5.940  0.4927E+01  0.3662E+02
   5.950  0.5260E+01  0.3668E+02
   5.960  0.5096E+01  0.3673E+02
   5.970  0.4781E+01  0.3678E+02
   5.980  0.4060E+01  0.3682E+02
   5.990  0.3598E+01  0.3686E+02
   6.000  0.3386E+01  0.3690E+02
   6.010  0.3172E+01  0.3693E+02
   6.020  0.2953E+01  0.3696E+02
   6.030  0.2807E+01  0.3699E+02
   6.040  0.2720E+01  0.3702E+02
   6.050  0.2603E+01  0.3704E+02
   6.060  0.2501E+01  0.3707E+02
   6.070  0.2441E+01  0.3709E+02
   6.080  0.2372E+01  0.3712E+02
   6.090  0.2291E+01  0.3714E+02
   6.100  0.2212E+01  0.3716E+02
   6.110  0.2142E+01  0.3718E+02
   6.120  0.2087E+01  0.3721E+02
   6.130  0.2038E+01  0.3723E+02
   6.140  0.1983E+01  0.3725E+02
   6.150  0.1935E+01  0.3727E+02
   6.160  0.1895E+01  0.3728E+02
   6.170  0.1851E+01  0.3730E+02
   6.180  0.1823E+01  0.3732E+02
   6.190  0.1788E+01  0.3734E+02
   6.200  0.1749E+01  0.3736E+02
   6.210  0.1718E+01  0.3737E+02
   6.220  0.1688E+01  0.3739E+02
   6.230  0.1654E+01  0.3741E+02
   6.240  0.1625E+01  0.3743E+02
   6.250  0.1602E+01  0.3744E+02
   6.260  0.1576E+01  0.3746E+02
   6.270  0.1549E+01  0.3747E+02
   6.280  0.1525E+01  0.3749E+02
   6.290  0.1505E+01  0.3750E+02
   6.300  0.1481E+01  0.3752E+02
   6.310  0.1456E+01  0.3753E+02
   6.320  0.1436E+01  0.3755E+02
   6.330  0.1418E+01  0.3756E+02
   6.340  0.1395E+01  0.3758E+02
   6.350  0.1376E+01  0.3759E+02
   6.360  0.1361E+01  0.3760E+02
   6.370  0.1347E+01  0.3762E+02
   6.380  0.1333E+01  0.3763E+02
   6.390  0.1313E+01  0.3764E+02
   6.400  0.1294E+01  0.3766E+02
   6.410  0.1280E+01  0.3767E+02
   6.420  0.1265E+01  0.3768E+02
   6.430  0.1251E+01  0.3769E+02
   6.440  0.1240E+01  0.3771E+02
   6.450  0.1231E+01  0.3772E+02
   6.460  0.1219E+01  0.3773E+02
   6.470  0.1205E+01  0.3774E+02
   6.480  0.1190E+01  0.3776E+02
   6.490  0.1175E+01  0.3777E+02
   6.500  0.1162E+01  0.3778E+02
   6.510  0.1150E+01  0.3779E+02
   6.520  0.1135E+01  0.3780E+02
   6.530  0.1125E+01  0.3781E+02
   6.540  0.1116E+01  0.3782E+02
   6.550  0.1108E+01  0.3784E+02
   6.560  0.1100E+01  0.3785E+02
   6.570  0.1092E+01  0.3786E+02
   6.580  0.1082E+01  0.3787E+02
   6.590  0.1067E+01  0.3788E+02
   6.600  0.1059E+01  0.3789E+02
   6.610  0.1050E+01  0.3790E+02
   6.620  0.1041E+01  0.3791E+02
   6.630  0.1036E+01  0.3792E+02
   6.640  0.1031E+01  0.3793E+02
   6.650  0.1022E+01  0.3794E+02
   6.660  0.1014E+01  0.3795E+02
   6.670  0.1005E+01  0.3796E+02
   6.680  0.9960E+00  0.3797E+02
   6.690  0.9865E+00  0.3798E+02
   6.700  0.9770E+00  0.3799E+02
   6.710  0.9691E+00  0.3800E+02
   6.720  0.9598E+00  0.3801E+02
   6.730  0.9505E+00  0.3802E+02
   6.740  0.9451E+00  0.3803E+02
   6.750  0.9398E+00  0.3804E+02
   6.760  0.9350E+00  0.3805E+02
   6.770  0.9301E+00  0.3806E+02
   6.780  0.9253E+00  0.3807E+02
   6.790  0.9206E+00  0.3808E+02
   6.800  0.9125E+00  0.3809E+02
   6.810  0.9058E+00  0.3810E+02
   6.820  0.9029E+00  0.3810E+02
   6.830  0.8978E+00  0.3811E+02
   6.840  0.8895E+00  0.3812E+02
   6.850  0.8828E+00  0.3813E+02
   6.860  0.8772E+00  0.3814E+02
   6.870  0.8716E+00  0.3815E+02
   6.880  0.8661E+00  0.3816E+02
   6.890  0.8604E+00  0.3817E+02
   6.900  0.8544E+00  0.3817E+02
   6.910  0.8481E+00  0.3818E+02
   6.920  0.8418E+00  0.3819E+02
   6.930  0.8354E+00  0.3820E+02
   6.940  0.8311E+00  0.3821E+02
   6.950  0.8241E+00  0.3822E+02
   6.960  0.8189E+00  0.3822E+02
   6.970  0.8164E+00  0.3823E+02
   6.980  0.8140E+00  0.3824E+02
   6.990  0.8113E+00  0.3825E+02
   7.000  0.8087E+00  0.3826E+02
   7.010  0.8060E+00  0.3827E+02
   7.020  0.8090E+00  0.3827E+02
   7.030  0.8011E+00  0.3828E+02
   7.040  0.7930E+00  0.3829E+02
   7.050  0.7855E+00  0.3830E+02
   7.060  0.7796E+00  0.3831E+02
   7.070  0.7744E+00  0.3831E+02
   7.080  0.7693E+00  0.3832E+02
   7.090  0.7652E+00  0.3833E+02
   7.100  0.7621E+00  0.3834E+02
   7.110  0.7589E+00  0.3834E+02
   7.120  0.7556E+00  0.3835E+02
   7.130  0.7521E+00  0.3836E+02
   7.140  0.7485E+00  0.3837E+02
   7.150  0.7445E+00  0.3837E+02
   7.160  0.7397E+00  0.3838E+02
   7.170  0.7342E+00  0.3839E+02
   7.180  0.7307E+00  0.3840E+02
   7.190  0.7292E+00  0.3840E+02
   7.200  0.7257E+00  0.3841E+02
   7.210  0.7255E+00  0.3842E+02
   7.220  0.7264E+00  0.3842E+02
   7.230  0.7260E+00  0.3843E+02
   7.240  0.7215E+00  0.3844E+02
   7.250  0.7168E+00  0.3845E+02
   7.260  0.7120E+00  0.3845E+02
   7.270  0.7072E+00  0.3846E+02
   7.280  0.7024E+00  0.3847E+02
   7.290  0.6975E+00  0.3847E+02
   7.300  0.6930E+00  0.3848E+02
   7.310  0.6881E+00  0.3849E+02
   7.320  0.6843E+00  0.3850E+02
   7.330  0.6937E+00  0.3850E+02
   7.340  0.8056E+00  0.3851E+02
   7.350  0.9325E+00  0.3852E+02
   7.360  0.1095E+01  0.3853E+02
   7.370  0.1417E+01  0.3854E+02
   7.380  0.1335E+01  0.3855E+02
   7.390  0.1376E+01  0.3857E+02
   7.400  0.1357E+01  0.3858E+02
   7.410  0.1375E+01  0.3860E+02
   7.420  0.1432E+01  0.3861E+02
   7.430  0.1802E+01  0.3863E+02
   7.440  0.1877E+01  0.3864E+02
   7.450  0.2030E+01  0.3866E+02
   7.460  0.2083E+01  0.3868E+02
   7.470  0.2057E+01  0.3870E+02
   7.480  0.2096E+01  0.3872E+02
   7.490  0.2088E+01  0.3875E+02
   7.500  0.2121E+01  0.3877E+02
   7.510  0.2147E+01  0.3879E+02
   7.520  0.2149E+01  0.3881E+02
   7.530  0.2145E+01  0.3883E+02
   7.540  0.2133E+01  0.3885E+02
   7.550  0.2153E+01  0.3887E+02
   7.560  0.2181E+01  0.3890E+02
   7.570  0.2209E+01  0.3892E+02
   7.580  0.2224E+01  0.3894E+02
   7.590  0.2234E+01  0.3896E+02
   7.600  0.2224E+01  0.3898E+02
   7.610  0.2230E+01  0.3901E+02
   7.620  0.2258E+01  0.3903E+02
   7.630  0.2297E+01  0.3905E+02
   7.640  0.2321E+01  0.3907E+02
   7.650  0.2354E+01  0.3910E+02
   7.660  0.2384E+01  0.3912E+02
   7.670  0.2407E+01  0.3915E+02
   7.680  0.2423E+01  0.3917E+02
   7.690  0.2433E+01  0.3919E+02
   7.700  0.2445E+01  0.3922E+02
   7.710  0.2462E+01  0.3924E+02
   7.720  0.2485E+01  0.3927E+02
   7.730  0.2513E+01  0.3929E+02
   7.740  0.2552E+01  0.3932E+02
   7.750  0.3523E+01  0.3935E+02
   7.760  0.4387E+01  0.3939E+02
   7.770  0.4312E+01  0.3944E+02
   7.780  0.4425E+01  0.3948E+02
   7.790  0.4378E+01  0.3953E+02
   7.800  0.4357E+01  0.3957E+02
   7.810  0.4384E+01  0.3961E+02
   7.820  0.4472E+01  0.3966E+02
   7.830  0.4481E+01  0.3970E+02
   7.840  0.4484E+01  0.3975E+02
   7.850  0.4492E+01  0.3979E+02
   7.860  0.4518E+01  0.3984E+02
   7.870  0.4480E+01  0.3988E+02
   7.880  0.4528E+01  0.3993E+02
   7.890  0.4584E+01  0.3997E+02
   7.900  0.4646E+01  0.4002E+02
   7.910  0.4740E+01  0.4007E+02
   7.920  0.4843E+01  0.4011E+02
   7.930  0.5859E+01  0.4016E+02
   7.940  0.5081E+01  0.4022E+02
   7.950  0.4734E+01  0.4027E+02
   7.960  0.4510E+01  0.4031E+02
   7.970  0.4466E+01  0.4036E+02
   7.980  0.4488E+01  0.4040E+02
   7.990  0.4672E+01  0.4045E+02
   8.000  0.4601E+01  0.4050E+02
   8.010  0.4452E+01  0.4054E+02
   8.020  0.4275E+01  0.4059E+02
   8.030  0.4195E+01  0.4063E+02
   8.040  0.4133E+01  0.4067E+02
   8.050  0.3978E+01  0.4071E+02
   8.060  0.3749E+01  0.4075E+02
   8.070  0.3663E+01  0.4079E+02
   8.080  0.3671E+01  0.4082E+02
   8.090  0.3759E+01  0.4086E+02
   8.100  0.3755E+01  0.4090E+02
   8.110  0.3833E+01  0.4094E+02
   8.120  0.4017E+01  0.4097E+02
   8.130  0.4262E+01  0.4102E+02
   8.140  0.4549E+01  0.4106E+02
   8.150  0.4545E+01  0.4111E+02
   8.160  0.4504E+01  0.4115E+02
   8.170  0.4674E+01  0.4120E+02
   8.180  0.5028E+01  0.4125E+02
   8.190  0.5588E+01  0.4130E+02
   8.200  0.5967E+01  0.4136E+02
   8.210  0.6122E+01  0.4142E+02
   8.220  0.6296E+01  0.4148E+02
   8.230  0.6673E+01  0.4155E+02
   8.240  0.7101E+01  0.4161E+02
   8.250  0.7437E+01  0.4169E+02
   8.260  0.7388E+01  0.4176E+02
   8.270  0.6920E+01  0.4184E+02
   8.280  0.6460E+01  0.4190E+02
   8.290  0.6318E+01  0.4197E+02
   8.300  0.6232E+01  0.4203E+02
   8.310  0.6088E+01  0.4209E+02
   8.320  0.6011E+01  0.4215E+02
   8.330  0.5963E+01  0.4221E+02
   8.340  0.5769E+01  0.4227E+02
   8.350  0.5585E+01  0.4233E+02
   8.360  0.5557E+01  0.4238E+02
   8.370  0.5505E+01  0.4244E+02
   8.380  0.5493E+01  0.4249E+02
   8.390  0.5576E+01  0.4255E+02
   8.400  0.5778E+01  0.4260E+02
   8.410  0.5723E+01  0.4266E+02
   8.420  0.5760E+01  0.4272E+02
   8.430  0.5770E+01  0.4278E+02
   8.440  0.5807E+01  0.4283E+02
   8.450  0.5956E+01  0.4289E+02
   8.460  0.6026E+01  0.4295E+02
   8.470  0.5943E+01  0.4301E+02
   8.480  0.5782E+01  0.4307E+02
   8.490  0.5620E+01  0.4313E+02
   8.500  0.5635E+01  0.4318E+02
   8.510  0.5709E+01  0.4324E+02
   8.520  0.6040E+01  0.4330E+02
   8.530  0.6238E+01  0.4336E+02
   8.540  0.6595E+01  0.4342E+02
   8.550  0.7089E+01  0.4349E+02
   8.560  0.7301E+01  0.4357E+02
   8.570  0.7321E+01  0.4364E+02
   8.580  0.7355E+01  0.4371E+02
   8.590  0.7279E+01  0.4379E+02
   8.600  0.5940E+01  0.4386E+02
   8.610  0.5656E+01  0.4391E+02
   8.620  0.5656E+01  0.4397E+02
   8.630  0.5555E+01  0.4403E+02
   8.640  0.5293E+01  0.4408E+02
   8.650  0.5106E+01  0.4413E+02
   8.660  0.4948E+01  0.4418E+02
   8.670  0.4773E+01  0.4423E+02
   8.680  0.4662E+01  0.4428E+02
   8.690  0.4457E+01  0.4433E+02
   8.700  0.4314E+01  0.4437E+02
   8.710  0.4133E+01  0.4441E+02
   8.720  0.3926E+01  0.4445E+02
   8.730  0.3796E+01  0.4449E+02
   8.740  0.3757E+01  0.4453E+02
   8.750  0.3861E+01  0.4457E+02
   8.760  0.3960E+01  0.4461E+02
   8.770  0.4057E+01  0.4465E+02
   8.780  0.4026E+01  0.4469E+02
   8.790  0.3810E+01  0.4473E+02
   8.800  0.3683E+01  0.4476E+02
   8.810  0.3751E+01  0.4480E+02
   8.820  0.3773E+01  0.4484E+02
   8.830  0.3737E+01  0.4488E+02
   8.840  0.3736E+01  0.4491E+02
   8.850  0.3752E+01  0.4495E+02
   8.860  0.3768E+01  0.4499E+02
   8.870  0.3775E+01  0.4503E+02
   8.880  0.3760E+01  0.4506E+02
   8.890  0.3751E+01  0.4510E+02
   8.900  0.3849E+01  0.4514E+02
   8.910  0.3788E+01  0.4518E+02
   8.920  0.3864E+01  0.4522E+02
   8.930  0.3958E+01  0.4526E+02
   8.940  0.4002E+01  0.4530E+02
   8.950  0.3989E+01  0.4534E+02
   8.960  0.4046E+01  0.4538E+02
   8.970  0.4144E+01  0.4542E+02
   8.980  0.4162E+01  0.4546E+02
   8.990  0.4200E+01  0.4550E+02
   9.000  0.4292E+01  0.4554E+02
   9.010  0.4405E+01  0.4559E+02
   9.020  0.4526E+01  0.4563E+02
   9.030  0.4627E+01  0.4568E+02
   9.040  0.4714E+01  0.4572E+02
   9.050  0.4789E+01  0.4577E+02
   9.060  0.4861E+01  0.4582E+02
   9.070  0.4888E+01  0.4587E+02
   9.080  0.4924E+01  0.4592E+02
   9.090  0.5009E+01  0.4597E+02
   9.100  0.5059E+01  0.4602E+02
   9.110  0.5109E+01  0.4607E+02
   9.120  0.5003E+01  0.4612E+02
   9.130  0.4678E+01  0.4617E+02
   9.140  0.4526E+01  0.4621E+02
   9.150  0.4500E+01  0.4626E+02
   9.160  0.4212E+01  0.4630E+02
   9.170  0.4096E+01  0.4634E+02
   9.180  0.3999E+01  0.4638E+02
   9.190  0.3913E+01  0.4642E+02
   9.200  0.3824E+01  0.4646E+02
   9.210  0.3713E+01  0.4650E+02
   9.220  0.3630E+01  0.4654E+02
   9.230  0.3614E+01  0.4657E+02
   9.240  0.3541E+01  0.4661E+02
   9.250  0.3489E+01  0.4664E+02
   9.260  0.3446E+01  0.4668E+02
   9.270  0.3405E+01  0.4671E+02
   9.280  0.3329E+01  0.4674E+02
   9.290  0.3311E+01  0.4678E+02
   9.300  0.3289E+01  0.4681E+02
   9.310  0.3264E+01  0.4684E+02
   9.320  0.3241E+01  0.4688E+02
   9.330  0.3224E+01  0.4691E+02
   9.340  0.3229E+01  0.4694E+02
   9.350  0.3296E+01  0.4697E+02
   9.360  0.3199E+01  0.4701E+02
   9.370  0.3136E+01  0.4704E+02
   9.380  0.3122E+01  0.4707E+02
   9.390  0.3113E+01  0.4710E+02
   9.400  0.3099E+01  0.4713E+02
   9.410  0.3085E+01  0.4716E+02
   9.420  0.3070E+01  0.4719E+02
   9.430  0.3056E+01  0.4722E+02
   9.440  0.3053E+01  0.4725E+02
   9.450  0.3057E+01  0.4728E+02
   9.460  0.3064E+01  0.4732E+02
   9.470  0.3061E+01  0.4735E+02
   9.480  0.3045E+01  0.4738E+02
   9.490  0.3033E+01  0.4741E+02
   9.500  0.3023E+01  0.4744E+02
   9.510  0.3027E+01  0.4747E+02
   9.520  0.3067E+01  0.4750E+02
   9.530  0.3050E+01  0.4753E+02
   9.540  0.3022E+01  0.4756E+02
   9.550  0.3006E+01  0.4759E+02
   9.560  0.2999E+01  0.4762E+02
   9.570  0.2999E+01  0.4765E+02
   9.580  0.3002E+01  0.4768E+02
   9.590  0.3005E+01  0.4771E+02
   9.600  0.3004E+01  0.4774E+02
   9.610  0.3004E+01  0.4777E+02
   9.620  0.3005E+01  0.4780E+02
   9.630  0.3011E+01  0.4783E+02
   9.640  0.3018E+01  0.4786E+02
   9.650  0.3038E+01  0.4789E+02
   9.660  0.3120E+01  0.4792E+02
   9.670  0.3053E+01  0.4795E+02
   9.680  0.3051E+01  0.4798E+02
   9.690  0.3057E+01  0.4801E+02
   9.700  0.3070E+01  0.4804E+02
   9.710  0.3080E+01  0.4807E+02
   9.720  0.3093E+01  0.4810E+02
   9.730  0.3104E+01  0.4814E+02
   9.740  0.3111E+01  0.4817E+02
   9.750  0.3120E+01  0.4820E+02
   9.760  0.3132E+01  0.4823E+02
   9.770  0.3147E+01  0.4826E+02
   9.780  0.3165E+01  0.4829E+02
   9.790  0.3187E+01  0.4832E+02
   9.800  0.3226E+01  0.4836E+02
   9.810  0.3270E+01  0.4839E+02
   9.820  0.3322E+01  0.4842E+02
   9.830  0.3335E+01  0.4845E+02
   9.840  0.3331E+01  0.4849E+02
   9.850  0.3345E+01  0.4852E+02
   9.860  0.3383E+01  0.4855E+02
   9.870  0.3493E+01  0.4859E+02
   9.880  0.3586E+01  0.4862E+02
   9.890  0.3674E+01  0.4866E+02
   9.900  0.3761E+01  0.4870E+02
   9.910  0.3835E+01  0.4874E+02
   9.920  0.3909E+01  0.4877E+02
   9.930  0.4005E+01  0.4881E+02
   9.940  0.4131E+01  0.4886E+02
   9.950  0.4031E+01  0.4890E+02
   9.960  0.3948E+01  0.4894E+02
   9.970  0.4015E+01  0.4898E+02
   9.980  0.4069E+01  0.4902E+02
   9.990  0.3861E+01  0.4906E+02
  10.000  0.3616E+01  0.4909E+02
  10.010  0.3502E+01  0.4913E+02
  10.020  0.3461E+01  0.4916E+02
  10.030  0.3559E+01  0.4920E+02
  10.040  0.3622E+01  0.4923E+02
  10.050  0.3695E+01  0.4927E+02
  10.060  0.3846E+01  0.4931E+02
  10.070  0.3983E+01  0.4935E+02
  10.080  0.4141E+01  0.4939E+02
  10.090  0.4177E+01  0.4943E+02
  10.100  0.4166E+01  0.4947E+02
  10.110  0.4230E+01  0.4951E+02
  10.120  0.4241E+01  0.4956E+02
  10.130  0.4262E+01  0.4960E+02
  10.140  0.4224E+01  0.4964E+02
  10.150  0.4196E+01  0.4968E+02
  10.160  0.4236E+01  0.4973E+02
  10.170  0.4147E+01  0.4977E+02
  10.180  0.4155E+01  0.4981E+02
  10.190  0.4075E+01  0.4985E+02
  10.200  0.4064E+01  0.4989E+02
  10.210  0.4078E+01  0.4993E+02
  10.220  0.4063E+01  0.4997E+02
  10.230  0.4077E+01  0.5001E+02
  10.240  0.4080E+01  0.5005E+02
  10.250  0.4077E+01  0.5009E+02
  10.260  0.4038E+01  0.5014E+02
  10.270  0.4042E+01  0.5018E+02
  10.280  0.4026E+01  0.5022E+02
  10.290  0.4033E+01  0.5026E+02
  10.300  0.4052E+01  0.5030E+02
  10.310  0.4052E+01  0.5034E+02
  10.320  0.4054E+01  0.5038E+02
  10.330  0.4052E+01  0.5042E+02
  10.340  0.4070E+01  0.5046E+02
  10.350  0.4086E+01  0.5050E+02
  10.360  0.4134E+01  0.5054E+02
  10.370  0.4089E+01  0.5058E+02
  10.380  0.4119E+01  0.5062E+02
  10.390  0.4146E+01  0.5066E+02
  10.400  0.4194E+01  0.5071E+02
  10.410  0.4202E+01  0.5075E+02
  10.420  0.4192E+01  0.5079E+02
  10.430  0.4204E+01  0.5083E+02
  10.440  0.4252E+01  0.5087E+02
  10.450  0.4326E+01  0.5092E+02
  10.460  0.4389E+01  0.5096E+02
  10.470  0.4445E+01  0.5101E+02
  10.480  0.4492E+01  0.5105E+02
  10.490  0.4532E+01  0.5110E+02
  10.500  0.4608E+01  0.5114E+02
  10.510  0.4737E+01  0.5119E+02
  10.520  0.4896E+01  0.5124E+02
  10.530  0.4988E+01  0.5129E+02
  10.540  0.5125E+01  0.5134E+02
  10.550  0.5183E+01  0.5139E+02
  10.560  0.5272E+01  0.5144E+02
  10.570  0.5311E+01  0.5149E+02
  10.580  0.5324E+01  0.5155E+02
  10.590  0.5367E+01  0.5160E+02
  10.600  0.5416E+01  0.5165E+02
  10.610  0.5505E+01  0.5171E+02
  10.620  0.5537E+01  0.5176E+02
  10.630  0.5589E+01  0.5182E+02
  10.640  0.6506E+01  0.5188E+02
  10.650  0.6072E+01  0.5194E+02
  10.660  0.5644E+01  0.5200E+02
  10.670  0.5385E+01  0.5206E+02
  10.680  0.5293E+01  0.5211E+02
  10.690  0.5196E+01  0.5216E+02
  10.700  0.5159E+01  0.5221E+02
  10.710  0.5043E+01  0.5226E+02
  10.720  0.4800E+01  0.5231E+02
  10.730  0.4755E+01  0.5236E+02
  10.740  0.4855E+01  0.5241E+02
  10.750  0.5015E+01  0.5246E+02
  10.760  0.5160E+01  0.5251E+02
  10.770  0.5095E+01  0.5256E+02
  10.780  0.5044E+01  0.5261E+02
  10.790  0.5039E+01  0.5266E+02
  10.800  0.4958E+01  0.5271E+02
  10.810  0.5050E+01  0.5276E+02
  10.820  0.5218E+01  0.5281E+02
  10.830  0.5381E+01  0.5287E+02
  10.840  0.5546E+01  0.5292E+02
  10.850  0.5771E+01  0.5298E+02
  10.860  0.6150E+01  0.5304E+02
  10.870  0.6613E+01  0.5310E+02
  10.880  0.6813E+01  0.5317E+02
  10.890  0.7071E+01  0.5324E+02
  10.900  0.7245E+01  0.5331E+02
  10.910  0.7435E+01  0.5338E+02
  10.920  0.8241E+01  0.5346E+02
  10.930  0.8007E+01  0.5354E+02
  10.940  0.7801E+01  0.5362E+02
  10.950  0.7611E+01  0.5370E+02
  10.960  0.7272E+01  0.5377E+02
  10.970  0.7165E+01  0.5385E+02
  10.980  0.7238E+01  0.5392E+02
  10.990  0.6846E+01  0.5399E+02
  11.000  0.6659E+01  0.5406E+02
  11.010  0.6674E+01  0.5412E+02
  11.020  0.6736E+01  0.5419E+02
  11.030  0.6755E+01  0.5426E+02
  11.040  0.6682E+01  0.5433E+02
  11.050  0.6569E+01  0.5439E+02
  11.060  0.6567E+01  0.5446E+02
  11.070  0.6738E+01  0.5452E+02
  11.080  0.6369E+01  0.5459E+02
  11.090  0.6132E+01  0.5465E+02
  11.100  0.6001E+01  0.5471E+02
  11.110  0.5733E+01  0.5477E+02
  11.120  0.5622E+01  0.5483E+02
  11.130  0.5504E+01  0.5488E+02
  11.140  0.5375E+01  0.5494E+02
  11.150  0.5376E+01  0.5499E+02
  11.160  0.5432E+01  0.5504E+02
  11.170  0.5479E+01  0.5510E+02
  11.180  0.5529E+01  0.5515E+02
  11.190  0.5607E+01  0.5521E+02
  11.200  0.5705E+01  0.5527E+02
  11.210  0.5681E+01  0.5532E+02
  11.220  0.5744E+01  0.5538E+02
  11.230  0.5591E+01  0.5544E+02
  11.240  0.5423E+01  0.5549E+02
  11.250  0.5414E+01  0.5555E+02
  11.260  0.5387E+01  0.5560E+02
  11.270  0.5393E+01  0.5565E+02
  11.280  0.5367E+01  0.5571E+02
  11.290  0.5368E+01  0.5576E+02
  11.300  0.5394E+01  0.5582E+02
  11.310  0.5493E+01  0.5587E+02
  11.320  0.5642E+01  0.5593E+02
  11.330  0.5879E+01  0.5598E+02
  11.340  0.6339E+01  0.5604E+02
  11.350  0.6470E+01  0.5611E+02
  11.360  0.6319E+01  0.5617E+02
  11.370  0.6017E+01  0.5624E+02
  11.380  0.5896E+01  0.5630E+02
  11.390  0.6291E+01  0.5636E+02
  11.400  0.6650E+01  0.5642E+02
  11.410  0.6790E+01  0.5649E+02
  11.420  0.6830E+01  0.5656E+02
  11.430  0.6801E+01  0.5663E+02
  11.440  0.7127E+01  0.5670E+02
  11.450  0.7392E+01  0.5677E+02
  11.460  0.7488E+01  0.5685E+02
  11.470  0.7641E+01  0.5692E+02
  11.480  0.7940E+01  0.5700E+02
  11.490  0.7754E+01  0.5708E+02
  11.500  0.7689E+01  0.5716E+02
  11.510  0.7613E+01  0.5723E+02
  11.520  0.7892E+01  0.5731E+02
  11.530  0.7738E+01  0.5739E+02
  11.540  0.7816E+01  0.5746E+02
  11.550  0.7980E+01  0.5754E+02
  11.560  0.7992E+01  0.5762E+02
  11.570  0.8251E+01  0.5770E+02
  11.580  0.8300E+01  0.5779E+02
  11.590  0.8846E+01  0.5787E+02
  11.600  0.9364E+01  0.5797E+02
  11.610  0.9371E+01  0.5806E+02
  11.620  0.9122E+01  0.5815E+02
  11.630  0.8694E+01  0.5824E+02
  11.640  0.8090E+01  0.5832E+02
  11.650  0.8408E+01  0.5841E+02
  11.660  0.8197E+01  0.5849E+02
  11.670  0.7926E+01  0.5857E+02
  11.680  0.7883E+01  0.5865E+02
  11.690  0.7926E+01  0.5873E+02
  11.700  0.7837E+01  0.5881E+02
  11.710  0.7924E+01  0.5888E+02
  11.720  0.8453E+01  0.5897E+02
  11.730  0.8761E+01  0.5905E+02
  11.740  0.8657E+01  0.5914E+02
  11.750  0.8201E+01  0.5922E+02
  11.760  0.8173E+01  0.5931E+02
  11.770  0.7918E+01  0.5939E+02
  11.780  0.7673E+01  0.5947E+02
  11.790  0.7351E+01  0.5954E+02
  11.800  0.6986E+01  0.5961E+02
  11.810  0.6701E+01  0.5968E+02
  11.820  0.6548E+01  0.5975E+02
  11.830  0.6293E+01  0.5981E+02
  11.840  0.5916E+01  0.5987E+02
  11.850  0.5822E+01  0.5993E+02
  11.860  0.6300E+01  0.5999E+02
  11.870  0.6286E+01  0.6005E+02
  11.880  0.6718E+01  0.6012E+02
  11.890  0.7086E+01  0.6019E+02
  11.900  0.7592E+01  0.6026E+02
  11.910  0.7872E+01  0.6034E+02
  11.920  0.8077E+01  0.6042E+02
  11.930  0.8118E+01  0.6050E+02
  11.940  0.7819E+01  0.6058E+02
  11.950  0.7517E+01  0.6066E+02
  11.960  0.6941E+01  0.6073E+02
  11.970  0.6442E+01  0.6080E+02
  11.980  0.5123E+01  0.6085E+02
  11.990  0.4805E+01  0.6090E+02
  12.000  0.4668E+01  0.6095E+02
  12.010  0.4641E+01  0.6100E+02
  12.020  0.4629E+01  0.6104E+02
  12.030  0.4586E+01  0.6109E+02
  12.040  0.4462E+01  0.6113E+02
  12.050  0.4409E+01  0.6118E+02
  12.060  0.4380E+01  0.6122E+02
  12.070  0.4355E+01  0.6127E+02
  12.080  0.4412E+01  0.6131E+02
  12.090  0.4443E+01  0.6135E+02
  12.100  0.4376E+01  0.6140E+02
  12.110  0.4398E+01  0.6144E+02
  12.120  0.4404E+01  0.6149E+02
  12.130  0.4344E+01  0.6153E+02
  12.140  0.4375E+01  0.6157E+02
  12.150  0.4374E+01  0.6162E+02
  12.160  0.4444E+01  0.6166E+02
  12.170  0.4484E+01  0.6171E+02
  12.180  0.4476E+01  0.6175E+02
  12.190  0.4507E+01  0.6179E+02
  12.200  0.4550E+01  0.6184E+02
  12.210  0.4532E+01  0.6189E+02
  12.220  0.4590E+01  0.6193E+02
  12.230  0.4643E+01  0.6198E+02
  12.240  0.4632E+01  0.6202E+02
  12.250  0.4685E+01  0.6207E+02
  12.260  0.4709E+01  0.6212E+02
  12.270  0.4706E+01  0.6216E+02
  12.280  0.4774E+01  0.6221E+02
  12.290  0.4760E+01  0.6226E+02
  12.300  0.4745E+01  0.6231E+02
  12.310  0.4714E+01  0.6235E+02
  12.320  0.4725E+01  0.6240E+02
  12.330  0.4783E+01  0.6245E+02
  12.340  0.4867E+01  0.6250E+02
  12.350  0.4919E+01  0.6255E+02
  12.360  0.4979E+01  0.6260E+02
  12.370  0.5035E+01  0.6265E+02
  12.380  0.5093E+01  0.6270E+02
  12.390  0.5149E+01  0.6275E+02
  12.400  0.5243E+01  0.6280E+02
  12.410  0.5316E+01  0.6285E+02
  12.420  0.5420E+01  0.6291E+02
  12.430  0.5503E+01  0.6296E+02
  12.440  0.5672E+01  0.6302E+02
  12.450  0.5853E+01  0.6307E+02
  12.460  0.6096E+01  0.6313E+02
  12.470  0.6097E+01  0.6319E+02
  12.480  0.6055E+01  0.6326E+02
  12.490  0.5708E+01  0.6331E+02
  12.500  0.5536E+01  0.6337E+02
  12.510  0.5379E+01  0.6343E+02
  12.520  0.5415E+01  0.6348E+02
  12.530  0.5622E+01  0.6353E+02
  12.540  0.5841E+01  0.6359E+02
  12.550  0.5851E+01  0.6365E+02
  12.560  0.6089E+01  0.6371E+02
  12.570  0.6285E+01  0.6377E+02
  12.580  0.6363E+01  0.6384E+02
  12.590  0.6423E+01  0.6390E+02
  12.600  0.6315E+01  0.6396E+02
  12.610  0.6410E+01  0.6403E+02
  12.620  0.6405E+01  0.6409E+02
  12.630  0.6634E+01  0.6416E+02
  12.640  0.6741E+01  0.6422E+02
  12.650  0.6818E+01  0.6429E+02
  12.660  0.6974E+01  0.6436E+02
  12.670  0.7276E+01  0.6443E+02
  12.680  0.7201E+01  0.6450E+02
  12.690  0.7384E+01  0.6458E+02
  12.700  0.7674E+01  0.6465E+02
  12.710  0.8181E+01  0.6473E+02
  12.720  0.8535E+01  0.6481E+02
  12.730  0.8560E+01  0.6490E+02
  12.740  0.8213E+01  0.6499E+02
  12.750  0.8015E+01  0.6507E+02
  12.760  0.7750E+01  0.6515E+02
  12.770  0.7623E+01  0.6522E+02
  12.780  0.7540E+01  0.6530E+02
  12.790  0.7485E+01  0.6538E+02
  12.800  0.7536E+01  0.6545E+02
  12.810  0.7380E+01  0.6553E+02
  12.820  0.7264E+01  0.6560E+02
  12.830  0.7211E+01  0.6567E+02
  12.840  0.6693E+01  0.6574E+02
  12.850  0.6003E+01  0.6580E+02
  12.860  0.5521E+01  0.6586E+02
  12.870  0.5194E+01  0.6592E+02
  12.880  0.5051E+01  0.6597E+02
  12.890  0.4942E+01  0.6602E+02
  12.900  0.5014E+01  0.6607E+02
  12.910  0.5067E+01  0.6612E+02
  12.920  0.5223E+01  0.6617E+02
  12.930  0.5062E+01  0.6622E+02
  12.940  0.5075E+01  0.6627E+02
  12.950  0.5121E+01  0.6632E+02
  12.960  0.5106E+01  0.6637E+02
  12.970  0.4836E+01  0.6642E+02
  12.980  0.4814E+01  0.6647E+02
  12.990  0.4809E+01  0.6652E+02
  13.000  0.4847E+01  0.6657E+02
  13.010  0.4807E+01  0.6662E+02
  13.020  0.4802E+01  0.6666E+02
  13.030  0.4757E+01  0.6671E+02
  13.040  0.4749E+01  0.6676E+02
  13.050  0.4809E+01  0.6681E+02
  13.060  0.5024E+01  0.6686E+02
  13.070  0.5134E+01  0.6691E+02
  13.080  0.4992E+01  0.6696E+02
  13.090  0.5006E+01  0.6701E+02
  13.100  0.4846E+01  0.6706E+02
  13.110  0.4887E+01  0.6711E+02
  13.120  0.4998E+01  0.6716E+02
  13.130  0.5076E+01  0.6721E+02
  13.140  0.5147E+01  0.6726E+02
  13.150  0.5279E+01  0.6731E+02
  13.160  0.5353E+01  0.6736E+02
  13.170  0.5442E+01  0.6742E+02
  13.180  0.5435E+01  0.6747E+02
  13.190  0.5407E+01  0.6753E+02
  13.200  0.5233E+01  0.6758E+02
  13.210  0.5149E+01  0.6763E+02
  13.220  0.5138E+01  0.6768E+02
  13.230  0.5314E+01  0.6774E+02
  13.240  0.5394E+01  0.6779E+02
  13.250  0.5446E+01  0.6784E+02
  13.260  0.5539E+01  0.6790E+02
  13.270  0.5871E+01  0.6795E+02
  13.280  0.5150E+01  0.6801E+02
  13.290  0.5043E+01  0.6806E+02
  13.300  0.4679E+01  0.6811E+02
  13.310  0.4614E+01  0.6816E+02
  13.320  0.4094E+01  0.6820E+02
  13.330  0.3836E+01  0.6824E+02
  13.340  0.3819E+01  0.6828E+02
  13.350  0.3864E+01  0.6832E+02
  13.360  0.3811E+01  0.6835E+02
  13.370  0.3732E+01  0.6839E+02
  13.380  0.3772E+01  0.6843E+02
  13.390  0.3911E+01  0.6847E+02
  13.400  0.3835E+01  0.6851E+02
  13.410  0.3740E+01  0.6854E+02
  13.420  0.3805E+01  0.6858E+02
  13.430  0.3778E+01  0.6862E+02
  13.440  0.3711E+01  0.6866E+02
  13.450  0.3722E+01  0.6869E+02
  13.460  0.3680E+01  0.6873E+02
  13.470  0.3547E+01  0.6877E+02
  13.480  0.3491E+01  0.6880E+02
  13.490  0.3504E+01  0.6884E+02
  13.500  0.3536E+01  0.6887E+02
  13.510  0.3566E+01  0.6891E+02
  13.520  0.3771E+01  0.6895E+02
  13.530  0.3898E+01  0.6898E+02
  13.540  0.3895E+01  0.6902E+02
  13.550  0.3987E+01  0.6906E+02
  13.560  0.4092E+01  0.6910E+02
  13.570  0.4329E+01  0.6914E+02
  13.580  0.4563E+01  0.6919E+02
  13.590  0.4784E+01  0.6924E+02
  13.600  0.5292E+01  0.6929E+02
  13.610  0.4974E+01  0.6934E+02
  13.620  0.5062E+01  0.6939E+02
  13.630  0.4578E+01  0.6943E+02
  13.640  0.4791E+01  0.6948E+02
  13.650  0.5083E+01  0.6953E+02
  13.660  0.5435E+01  0.6958E+02
  13.670  0.5458E+01  0.6964E+02
  13.680  0.5479E+01  0.6969E+02
  13.690  0.5499E+01  0.6975E+02
  13.700  0.5622E+01  0.6980E+02
  13.710  0.5636E+01  0.6986E+02
  13.720  0.5548E+01  0.6992E+02
  13.730  0.5480E+01  0.6997E+02
  13.740  0.5404E+01  0.7002E+02
  13.750  0.5417E+01  0.7008E+02
  13.760  0.5614E+01  0.7013E+02
  13.770  0.5768E+01  0.7019E+02
  13.780  0.5913E+01  0.7025E+02
  13.790  0.6071E+01  0.7031E+02
  13.800  0.6334E+01  0.7037E+02
  13.810  0.6530E+01  0.7044E+02
  13.820  0.6658E+01  0.7050E+02
  13.830  0.6709E+01  0.7057E+02
  13.840  0.6601E+01  0.7063E+02
  13.850  0.6471E+01  0.7070E+02
  13.860  0.6476E+01  0.7077E+02
  13.870  0.6468E+01  0.7083E+02
  13.880  0.6533E+01  0.7089E+02
  13.890  0.6699E+01  0.7096E+02
  13.900  0.6752E+01  0.7103E+02
  13.910  0.6913E+01  0.7110E+02
  13.920  0.7080E+01  0.7117E+02
  13.930  0.7050E+01  0.7124E+02
  13.940  0.7050E+01  0.7131E+02
  13.950  0.7042E+01  0.7138E+02
  13.960  0.7071E+01  0.7145E+02
  13.970  0.7094E+01  0.7152E+02
  13.980  0.7106E+01  0.7159E+02
  13.990  0.6942E+01  0.7166E+02
  14.000  0.6753E+01  0.7173E+02
  14.010  0.6616E+01  0.7180E+02
  14.020  0.6537E+01  0.7186E+02
  14.030  0.6415E+01  0.7193E+02
  14.040  0.6290E+01  0.7199E+02
  14.050  0.6233E+01  0.7205E+02
  14.060  0.6222E+01  0.7211E+02
  14.070  0.6181E+01  0.7218E+02
  14.080  0.5999E+01  0.7224E+02
  14.090  0.5880E+01  0.7230E+02
  14.100  0.5930E+01  0.7236E+02
  14.110  0.6072E+01  0.7242E+02
  14.120  0.5974E+01  0.7248E+02
  14.130  0.5939E+01  0.7254E+02
  14.140  0.5918E+01  0.7260E+02
  14.150  0.5881E+01  0.7265E+02
  14.160  0.5781E+01  0.7271E+02
  14.170  0.5705E+01  0.7277E+02
  14.180  0.5669E+01  0.7283E+02
  14.190  0.5637E+01  0.7288E+02
  14.200  0.5676E+01  0.7294E+02
  14.210  0.5725E+01  0.7300E+02
  14.220  0.5846E+01  0.7306E+02
  14.230  0.5884E+01  0.7311E+02
  14.240  0.5984E+01  0.7317E+02
  14.250  0.5931E+01  0.7323E+02
  14.260  0.6027E+01  0.7329E+02
  14.270  0.6127E+01  0.7335E+02
  14.280  0.6108E+01  0.7342E+02
  14.290  0.6269E+01  0.7348E+02
  14.300  0.6296E+01  0.7354E+02
  14.310  0.6490E+01  0.7360E+02
  14.320  0.6300E+01  0.7367E+02
  14.330  0.6188E+01  0.7373E+02
  14.340  0.6275E+01  0.7379E+02
  14.350  0.6338E+01  0.7386E+02
  14.360  0.6331E+01  0.7392E+02
  14.370  0.6520E+01  0.7398E+02
  14.380  0.6146E+01  0.7405E+02
  14.390  0.5863E+01  0.7411E+02
  14.400  0.5599E+01  0.7417E+02
  14.410  0.5504E+01  0.7422E+02
  14.420  0.5485E+01  0.7428E+02
  14.430  0.5795E+01  0.7433E+02
  14.440  0.5899E+01  0.7439E+02
  14.450  0.6015E+01  0.7445E+02
  14.460  0.6103E+01  0.7451E+02
  14.470  0.6220E+01  0.7457E+02
  14.480  0.6234E+01  0.7464E+02
  14.490  0.6553E+01  0.7470E+02
  14.500  0.7707E+01  0.7477E+02
  14.510  0.9967E+01  0.7486E+02
  14.520  0.9667E+01  0.7496E+02
  14.530  0.8079E+01  0.7505E+02
  14.540  0.5713E+01  0.7511E+02
  14.550  0.5521E+01  0.7517E+02
  14.560  0.5412E+01  0.7522E+02
  14.570  0.5316E+01  0.7528E+02
  14.580  0.5137E+01  0.7533E+02
  14.590  0.5065E+01  0.7538E+02
  14.600  0.5240E+01  0.7543E+02
  14.610  0.5399E+01  0.7548E+02
  14.620  0.5449E+01  0.7554E+02
  14.630  0.5333E+01  0.7559E+02
  14.640  0.5345E+01  0.7565E+02
  14.650  0.5245E+01  0.7570E+02
  14.660  0.5190E+01  0.7575E+02
  14.670  0.5124E+01  0.7580E+02
  14.680  0.5088E+01  0.7585E+02
  14.690  0.5044E+01  0.7590E+02
  14.700  0.5057E+01  0.7596E+02
  14.710  0.5057E+01  0.7601E+02
  14.720  0.5138E+01  0.7606E+02
  14.730  0.5185E+01  0.7611E+02
  14.740  0.5318E+01  0.7616E+02
  14.750  0.5554E+01  0.7622E+02
  14.760  0.5759E+01  0.7627E+02
  14.770  0.5755E+01  0.7633E+02
  14.780  0.5735E+01  0.7639E+02
  14.790  0.5908E+01  0.7645E+02
  14.800  0.5912E+01  0.7650E+02
  14.810  0.5883E+01  0.7656E+02
  14.820  0.5979E+01  0.7662E+02
  14.830  0.5961E+01  0.7668E+02
  14.840  0.5855E+01  0.7674E+02
  14.850  0.5905E+01  0.7680E+02
  14.860  0.6025E+01  0.7686E+02
  14.870  0.6056E+01  0.7692E+02
  14.880  0.6307E+01  0.7698E+02
  14.890  0.6538E+01  0.7705E+02
  14.900  0.6861E+01  0.7712E+02
  14.910  0.6302E+01  0.7718E+02
  14.920  0.6232E+01  0.7724E+02
  14.930  0.6074E+01  0.7731E+02
  14.940  0.5962E+01  0.7737E+02
  14.950  0.5914E+01  0.7743E+02
  14.960  0.5527E+01  0.7748E+02
  14.970  0.5582E+01  0.7754E+02
  14.980  0.5584E+01  0.7759E+02
  14.990  0.5375E+01  0.7765E+02
  15.000  0.5352E+01  0.7770E+02
