#  E (eV)   dos(E)     Int dos(E) EFermi =   -1.207 eV
 -15.000  0.7024E+00  0.2612E+01
 -14.990  0.7037E+00  0.2619E+01
 -14.980  0.7086E+00  0.2626E+01
 -14.970  0.7111E+00  0.2633E+01
 -14.960  0.7139E+00  0.2640E+01
 -14.950  0.7168E+00  0.2648E+01
 -14.940  0.7196E+00  0.2655E+01
 -14.930  0.7223E+00  0.2662E+01
 -14.920  0.7299E+00  0.2669E+01
 -14.910  0.7349E+00  0.2677E+01
 -14.900  0.7399E+00  0.2684E+01
 -14.890  0.7379E+00  0.2691E+01
 -14.880  0.7391E+00  0.2699E+01
 -14.870  0.7406E+00  0.2706E+01
 -14.860  0.7466E+00  0.2713E+01
 -14.850  0.7515E+00  0.2721E+01
 -14.840  0.7553E+00  0.2729E+01
 -14.830  0.7591E+00  0.2736E+01
 -14.820  0.7629E+00  0.2744E+01
 -14.810  0.7666E+00  0.2751E+01
 -14.800  0.7739E+00  0.2759E+01
 -14.790  0.7799E+00  0.2767E+01
 -14.780  0.7816E+00  0.2775E+01
 -14.770  0.7840E+00  0.2782E+01
 -14.760  0.7869E+00  0.2790E+01
 -14.750  0.7900E+00  0.2798E+01
 -14.740  0.7951E+00  0.2806E+01
 -14.730  0.8029E+00  0.2814E+01
 -14.720  0.8080E+00  0.2822E+01
 -14.710  0.8129E+00  0.2830E+01
 -14.700  0.8179E+00  0.2838E+01
 -14.690  0.8228E+00  0.2847E+01
 -14.680  0.8273E+00  0.2855E+01
 -14.670  0.8351E+00  0.2863E+01
 -14.660  0.8401E+00  0.2872E+01
 -14.650  0.8453E+00  0.2880E+01
 -14.640  0.8499E+00  0.2888E+01
 -14.630  0.8546E+00  0.2897E+01
 -14.620  0.8599E+00  0.2906E+01
 -14.610  0.8705E+00  0.2914E+01
 -14.600  0.8777E+00  0.2923E+01
 -14.590  0.8842E+00  0.2932E+01
 -14.580  0.8908E+00  0.2941E+01
 -14.570  0.8972E+00  0.2950E+01
 -14.560  0.9019E+00  0.2959E+01
 -14.550  0.9134E+00  0.2968E+01
 -14.540  0.9218E+00  0.2977E+01
 -14.530  0.9295E+00  0.2986E+01
 -14.520  0.9364E+00  0.2995E+01
 -14.510  0.9432E+00  0.3005E+01
 -14.500  0.9528E+00  0.3014E+01
 -14.490  0.9661E+00  0.3024E+01
 -14.480  0.9752E+00  0.3034E+01
 -14.470  0.9843E+00  0.3043E+01
 -14.460  0.9933E+00  0.3053E+01
 -14.450  0.1002E+01  0.3063E+01
 -14.440  0.1018E+01  0.3073E+01
 -14.430  0.1030E+01  0.3084E+01
 -14.420  0.1042E+01  0.3094E+01
 -14.410  0.1053E+01  0.3104E+01
 -14.400  0.1063E+01  0.3115E+01
 -14.390  0.1079E+01  0.3126E+01
 -14.380  0.1097E+01  0.3137E+01
 -14.370  0.1110E+01  0.3148E+01
 -14.360  0.1123E+01  0.3159E+01
 -14.350  0.1138E+01  0.3170E+01
 -14.340  0.1162E+01  0.3182E+01
 -14.330  0.1182E+01  0.3193E+01
 -14.320  0.1202E+01  0.3205E+01
 -14.310  0.1219E+01  0.3217E+01
 -14.300  0.1237E+01  0.3230E+01
 -14.290  0.1268E+01  0.3242E+01
 -14.280  0.1292E+01  0.3255E+01
 -14.270  0.1314E+01  0.3268E+01
 -14.260  0.1336E+01  0.3281E+01
 -14.250  0.1378E+01  0.3295E+01
 -14.240  0.1417E+01  0.3309E+01
 -14.230  0.1453E+01  0.3323E+01
 -14.220  0.1486E+01  0.3338E+01
 -14.210  0.1545E+01  0.3353E+01
 -14.200  0.1591E+01  0.3369E+01
 -14.190  0.1636E+01  0.3385E+01
 -14.180  0.1714E+01  0.3401E+01
 -14.170  0.1781E+01  0.3419E+01
 -14.160  0.1863E+01  0.3437E+01
 -14.150  0.2018E+01  0.3456E+01
 -14.140  0.2152E+01  0.3477E+01
 -14.130  0.2430E+01  0.3500E+01
 -14.120  0.2934E+01  0.3526E+01
 -14.110  0.2769E+01  0.3559E+01
 -14.100  0.2426E+01  0.3586E+01
 -14.090  0.2087E+01  0.3610E+01
 -14.080  0.2109E+01  0.3631E+01
 -14.070  0.1965E+01  0.3652E+01
 -14.060  0.1915E+01  0.3671E+01
 -14.050  0.1722E+01  0.3689E+01
 -14.040  0.1713E+01  0.3706E+01
 -14.030  0.1598E+01  0.3722E+01
 -14.020  0.1561E+01  0.3738E+01
 -14.010  0.1570E+01  0.3754E+01
 -14.000  0.1508E+01  0.3769E+01
 -13.990  0.1439E+01  0.3784E+01
 -13.980  0.1438E+01  0.3798E+01
 -13.970  0.1352E+01  0.3812E+01
 -13.960  0.1324E+01  0.3825E+01
 -13.950  0.1336E+01  0.3839E+01
 -13.940  0.1310E+01  0.3852E+01
 -13.930  0.1262E+01  0.3865E+01
 -13.920  0.1249E+01  0.3877E+01
 -13.910  0.1183E+01  0.3889E+01
 -13.900  0.1171E+01  0.3901E+01
 -13.890  0.1231E+01  0.3913E+01
 -13.880  0.1118E+01  0.3925E+01
 -13.870  0.1159E+01  0.3936E+01
 -13.860  0.1077E+01  0.3947E+01
 -13.850  0.1103E+01  0.3959E+01
 -13.840  0.1057E+01  0.3970E+01
 -13.830  0.1171E+01  0.3980E+01
 -13.820  0.9218E+00  0.3991E+01
 -13.810  0.2199E+00  0.4000E+01
 -13.800  0.0000E+00  0.4000E+01
 -13.790  0.0000E+00  0.4000E+01
 -13.780  0.0000E+00  0.4000E+01
 -13.770  0.0000E+00  0.4000E+01
 -13.760  0.0000E+00  0.4000E+01
 -13.750  0.0000E+00  0.4000E+01
 -13.740  0.0000E+00  0.4000E+01
 -13.730  0.0000E+00  0.4000E+01
 -13.720  0.0000E+00  0.4000E+01
 -13.710  0.0000E+00  0.4000E+01
 -13.700  0.0000E+00  0.4000E+01
 -13.690  0.0000E+00  0.4000E+01
 -13.680  0.0000E+00  0.4000E+01
 -13.670  0.0000E+00  0.4000E+01
 -13.660  0.0000E+00  0.4000E+01
 -13.650  0.0000E+00  0.4000E+01
 -13.640  0.0000E+00  0.4000E+01
 -13.630  0.0000E+00  0.4000E+01
 -13.620  0.0000E+00  0.4000E+01
 -13.610  0.0000E+00  0.4000E+01
 -13.600  0.0000E+00  0.4000E+01
 -13.590  0.0000E+00  0.4000E+01
 -13.580  0.0000E+00  0.4000E+01
 -13.570  0.0000E+00  0.4000E+01
 -13.560  0.0000E+00  0.4000E+01
 -13.550  0.0000E+00  0.4000E+01
 -13.540  0.0000E+00  0.4000E+01
 -13.530  0.0000E+00  0.4000E+01
 -13.520  0.0000E+00  0.4000E+01
 -13.510  0.0000E+00  0.4000E+01
 -13.500  0.0000E+00  0.4000E+01
 -13.490  0.0000E+00  0.4000E+01
 -13.480  0.0000E+00  0.4000E+01
 -13.470  0.0000E+00  0.4000E+01
 -13.460  0.0000E+00  0.4000E+01
 -13.450  0.0000E+00  0.4000E+01
 -13.440  0.0000E+00  0.4000E+01
 -13.430  0.0000E+00  0.4000E+01
 -13.420  0.0000E+00  0.4000E+01
 -13.410  0.0000E+00  0.4000E+01
 -13.400  0.0000E+00  0.4000E+01
 -13.390  0.0000E+00  0.4000E+01
 -13.380  0.0000E+00  0.4000E+01
 -13.370  0.0000E+00  0.4000E+01
 -13.360  0.0000E+00  0.4000E+01
 -13.350  0.0000E+00  0.4000E+01
 -13.340  0.0000E+00  0.4000E+01
 -13.330  0.0000E+00  0.4000E+01
 -13.320  0.0000E+00  0.4000E+01
 -13.310  0.0000E+00  0.4000E+01
 -13.300  0.0000E+00  0.4000E+01
 -13.290  0.0000E+00  0.4000E+01
 -13.280  0.0000E+00  0.4000E+01
 -13.270  0.0000E+00  0.4000E+01
 -13.260  0.0000E+00  0.4000E+01
 -13.250  0.0000E+00  0.4000E+01
 -13.240  0.0000E+00  0.4000E+01
 -13.230  0.0000E+00  0.4000E+01
 -13.220  0.0000E+00  0.4000E+01
 -13.210  0.0000E+00  0.4000E+01
 -13.200  0.0000E+00  0.4000E+01
 -13.190  0.0000E+00  0.4000E+01
 -13.180  0.0000E+00  0.4000E+01
 -13.170  0.0000E+00  0.4000E+01
 -13.160  0.0000E+00  0.4000E+01
 -13.150  0.0000E+00  0.4000E+01
 -13.140  0.0000E+00  0.4000E+01
 -13.130  0.0000E+00  0.4000E+01
 -13.120  0.0000E+00  0.4000E+01
 -13.110  0.0000E+00  0.4000E+01
 -13.100  0.0000E+00  0.4000E+01
 -13.090  0.0000E+00  0.4000E+01
 -13.080  0.0000E+00  0.4000E+01
 -13.070  0.0000E+00  0.4000E+01
 -13.060  0.0000E+00  0.4000E+01
 -13.050  0.0000E+00  0.4000E+01
 -13.040  0.0000E+00  0.4000E+01
 -13.030  0.0000E+00  0.4000E+01
 -13.020  0.0000E+00  0.4000E+01
 -13.010  0.0000E+00  0.4000E+01
 -13.000  0.0000E+00  0.4000E+01
 -12.990  0.0000E+00  0.4000E+01
 -12.980  0.0000E+00  0.4000E+01
 -12.970  0.0000E+00  0.4000E+01
 -12.960  0.0000E+00  0.4000E+01
 -12.950  0.0000E+00  0.4000E+01
 -12.940  0.0000E+00  0.4000E+01
 -12.930  0.0000E+00  0.4000E+01
 -12.920  0.0000E+00  0.4000E+01
 -12.910  0.0000E+00  0.4000E+01
 -12.900  0.0000E+00  0.4000E+01
 -12.890  0.0000E+00  0.4000E+01
 -12.880  0.0000E+00  0.4000E+01
 -12.870  0.0000E+00  0.4000E+01
 -12.860  0.0000E+00  0.4000E+01
 -12.850  0.0000E+00  0.4000E+01
 -12.840  0.0000E+00  0.4000E+01
 -12.830  0.0000E+00  0.4000E+01
 -12.820  0.0000E+00  0.4000E+01
 -12.810  0.0000E+00  0.4000E+01
 -12.800  0.0000E+00  0.4000E+01
 -12.790  0.0000E+00  0.4000E+01
 -12.780  0.0000E+00  0.4000E+01
 -12.770  0.0000E+00  0.4000E+01
 -12.760  0.0000E+00  0.4000E+01
 -12.750  0.0000E+00  0.4000E+01
 -12.740  0.0000E+00  0.4000E+01
 -12.730  0.0000E+00  0.4000E+01
 -12.720  0.0000E+00  0.4000E+01
 -12.710  0.0000E+00  0.4000E+01
 -12.700  0.0000E+00  0.4000E+01
 -12.690  0.0000E+00  0.4000E+01
 -12.680  0.0000E+00  0.4000E+01
 -12.670  0.0000E+00  0.4000E+01
 -12.660  0.0000E+00  0.4000E+01
 -12.650  0.0000E+00  0.4000E+01
 -12.640  0.0000E+00  0.4000E+01
 -12.630  0.0000E+00  0.4000E+01
 -12.620  0.0000E+00  0.4000E+01
 -12.610  0.0000E+00  0.4000E+01
 -12.600  0.0000E+00  0.4000E+01
 -12.590  0.0000E+00  0.4000E+01
 -12.580  0.0000E+00  0.4000E+01
 -12.570  0.0000E+00  0.4000E+01
 -12.560  0.0000E+00  0.4000E+01
 -12.550  0.0000E+00  0.4000E+01
 -12.540  0.0000E+00  0.4000E+01
 -12.530  0.0000E+00  0.4000E+01
 -12.520  0.0000E+00  0.4000E+01
 -12.510  0.0000E+00  0.4000E+01
 -12.500  0.0000E+00  0.4000E+01
 -12.490  0.0000E+00  0.4000E+01
 -12.480  0.0000E+00  0.4000E+01
 -12.470  0.0000E+00  0.4000E+01
 -12.460  0.0000E+00  0.4000E+01
 -12.450  0.0000E+00  0.4000E+01
 -12.440  0.0000E+00  0.4000E+01
 -12.430  0.0000E+00  0.4000E+01
 -12.420  0.0000E+00  0.4000E+01
 -12.410  0.0000E+00  0.4000E+01
 -12.400  0.0000E+00  0.4000E+01
 -12.390  0.0000E+00  0.4000E+01
 -12.380  0.0000E+00  0.4000E+01
 -12.370  0.0000E+00  0.4000E+01
 -12.360  0.0000E+00  0.4000E+01
 -12.350  0.0000E+00  0.4000E+01
 -12.340  0.0000E+00  0.4000E+01
 -12.330  0.0000E+00  0.4000E+01
 -12.320  0.0000E+00  0.4000E+01
 -12.310  0.0000E+00  0.4000E+01
 -12.300  0.0000E+00  0.4000E+01
 -12.290  0.0000E+00  0.4000E+01
 -12.280  0.0000E+00  0.4000E+01
 -12.270  0.0000E+00  0.4000E+01
 -12.260  0.0000E+00  0.4000E+01
 -12.250  0.0000E+00  0.4000E+01
 -12.240  0.0000E+00  0.4000E+01
 -12.230  0.0000E+00  0.4000E+01
 -12.220  0.0000E+00  0.4000E+01
 -12.210  0.0000E+00  0.4000E+01
 -12.200  0.0000E+00  0.4000E+01
 -12.190  0.0000E+00  0.4000E+01
 -12.180  0.0000E+00  0.4000E+01
 -12.170  0.0000E+00  0.4000E+01
 -12.160  0.0000E+00  0.4000E+01
 -12.150  0.0000E+00  0.4000E+01
 -12.140  0.0000E+00  0.4000E+01
 -12.130  0.0000E+00  0.4000E+01
 -12.120  0.0000E+00  0.4000E+01
 -12.110  0.0000E+00  0.4000E+01
 -12.100  0.0000E+00  0.4000E+01
 -12.090  0.0000E+00  0.4000E+01
 -12.080  0.0000E+00  0.4000E+01
 -12.070  0.0000E+00  0.4000E+01
 -12.060  0.0000E+00  0.4000E+01
 -12.050  0.0000E+00  0.4000E+01
 -12.040  0.0000E+00  0.4000E+01
 -12.030  0.0000E+00  0.4000E+01
 -12.020  0.0000E+00  0.4000E+01
 -12.010  0.0000E+00  0.4000E+01
 -12.000  0.0000E+00  0.4000E+01
 -11.990  0.0000E+00  0.4000E+01
 -11.980  0.0000E+00  0.4000E+01
 -11.970  0.0000E+00  0.4000E+01
 -11.960  0.0000E+00  0.4000E+01
 -11.950  0.0000E+00  0.4000E+01
 -11.940  0.0000E+00  0.4000E+01
 -11.930  0.0000E+00  0.4000E+01
 -11.920  0.0000E+00  0.4000E+01
 -11.910  0.0000E+00  0.4000E+01
 -11.900  0.0000E+00  0.4000E+01
 -11.890  0.0000E+00  0.4000E+01
 -11.880  0.0000E+00  0.4000E+01
 -11.870  0.0000E+00  0.4000E+01
 -11.860  0.0000E+00  0.4000E+01
 -11.850  0.0000E+00  0.4000E+01
 -11.840  0.0000E+00  0.4000E+01
 -11.830  0.0000E+00  0.4000E+01
 -11.820  0.0000E+00  0.4000E+01
 -11.810  0.0000E+00  0.4000E+01
 -11.800  0.0000E+00  0.4000E+01
 -11.790  0.0000E+00  0.4000E+01
 -11.780  0.0000E+00  0.4000E+01
 -11.770  0.0000E+00  0.4000E+01
 -11.760  0.0000E+00  0.4000E+01
 -11.750  0.0000E+00  0.4000E+01
 -11.740  0.0000E+00  0.4000E+01
 -11.730  0.0000E+00  0.4000E+01
 -11.720  0.0000E+00  0.4000E+01
 -11.710  0.0000E+00  0.4000E+01
 -11.700  0.0000E+00  0.4000E+01
 -11.690  0.0000E+00  0.4000E+01
 -11.680  0.0000E+00  0.4000E+01
 -11.670  0.0000E+00  0.4000E+01
 -11.660  0.0000E+00  0.4000E+01
 -11.650  0.0000E+00  0.4000E+01
 -11.640  0.0000E+00  0.4000E+01
 -11.630  0.0000E+00  0.4000E+01
 -11.620  0.0000E+00  0.4000E+01
 -11.610  0.0000E+00  0.4000E+01
 -11.600  0.0000E+00  0.4000E+01
 -11.590  0.0000E+00  0.4000E+01
 -11.580  0.0000E+00  0.4000E+01
 -11.570  0.0000E+00  0.4000E+01
 -11.560  0.0000E+00  0.4000E+01
 -11.550  0.0000E+00  0.4000E+01
 -11.540  0.0000E+00  0.4000E+01
 -11.530  0.0000E+00  0.4000E+01
 -11.520  0.0000E+00  0.4000E+01
 -11.510  0.0000E+00  0.4000E+01
 -11.500  0.0000E+00  0.4000E+01
 -11.490  0.0000E+00  0.4000E+01
 -11.480  0.0000E+00  0.4000E+01
 -11.470  0.0000E+00  0.4000E+01
 -11.460  0.0000E+00  0.4000E+01
 -11.450  0.0000E+00  0.4000E+01
 -11.440  0.0000E+00  0.4000E+01
 -11.430  0.0000E+00  0.4000E+01
 -11.420  0.0000E+00  0.4000E+01
 -11.410  0.0000E+00  0.4000E+01
 -11.400  0.0000E+00  0.4000E+01
 -11.390  0.0000E+00  0.4000E+01
 -11.380  0.0000E+00  0.4000E+01
 -11.370  0.0000E+00  0.4000E+01
 -11.360  0.0000E+00  0.4000E+01
 -11.350  0.0000E+00  0.4000E+01
 -11.340  0.0000E+00  0.4000E+01
 -11.330  0.0000E+00  0.4000E+01
 -11.320  0.0000E+00  0.4000E+01
 -11.310  0.0000E+00  0.4000E+01
 -11.300  0.0000E+00  0.4000E+01
 -11.290  0.0000E+00  0.4000E+01
 -11.280  0.0000E+00  0.4000E+01
 -11.270  0.0000E+00  0.4000E+01
 -11.260  0.0000E+00  0.4000E+01
 -11.250  0.0000E+00  0.4000E+01
 -11.240  0.0000E+00  0.4000E+01
 -11.230  0.0000E+00  0.4000E+01
 -11.220  0.0000E+00  0.4000E+01
 -11.210  0.0000E+00  0.4000E+01
 -11.200  0.0000E+00  0.4000E+01
 -11.190  0.0000E+00  0.4000E+01
 -11.180  0.0000E+00  0.4000E+01
 -11.170  0.0000E+00  0.4000E+01
 -11.160  0.0000E+00  0.4000E+01
 -11.150  0.0000E+00  0.4000E+01
 -11.140  0.0000E+00  0.4000E+01
 -11.130  0.0000E+00  0.4000E+01
 -11.120  0.0000E+00  0.4000E+01
 -11.110  0.0000E+00  0.4000E+01
 -11.100  0.0000E+00  0.4000E+01
 -11.090  0.0000E+00  0.4000E+01
 -11.080  0.0000E+00  0.4000E+01
 -11.070  0.0000E+00  0.4000E+01
 -11.060  0.0000E+00  0.4000E+01
 -11.050  0.0000E+00  0.4000E+01
 -11.040  0.0000E+00  0.4000E+01
 -11.030  0.0000E+00  0.4000E+01
 -11.020  0.0000E+00  0.4000E+01
 -11.010  0.0000E+00  0.4000E+01
 -11.000  0.0000E+00  0.4000E+01
 -10.990  0.0000E+00  0.4000E+01
 -10.980  0.0000E+00  0.4000E+01
 -10.970  0.0000E+00  0.4000E+01
 -10.960  0.0000E+00  0.4000E+01
 -10.950  0.0000E+00  0.4000E+01
 -10.940  0.0000E+00  0.4000E+01
 -10.930  0.0000E+00  0.4000E+01
 -10.920  0.0000E+00  0.4000E+01
 -10.910  0.0000E+00  0.4000E+01
 -10.900  0.0000E+00  0.4000E+01
 -10.890  0.0000E+00  0.4000E+01
 -10.880  0.0000E+00  0.4000E+01
 -10.870  0.0000E+00  0.4000E+01
 -10.860  0.0000E+00  0.4000E+01
 -10.850  0.0000E+00  0.4000E+01
 -10.840  0.0000E+00  0.4000E+01
 -10.830  0.0000E+00  0.4000E+01
 -10.820  0.0000E+00  0.4000E+01
 -10.810  0.0000E+00  0.4000E+01
 -10.800  0.0000E+00  0.4000E+01
 -10.790  0.0000E+00  0.4000E+01
 -10.780  0.0000E+00  0.4000E+01
 -10.770  0.0000E+00  0.4000E+01
 -10.760  0.0000E+00  0.4000E+01
 -10.750  0.0000E+00  0.4000E+01
 -10.740  0.0000E+00  0.4000E+01
 -10.730  0.0000E+00  0.4000E+01
 -10.720  0.0000E+00  0.4000E+01
 -10.710  0.0000E+00  0.4000E+01
 -10.700  0.0000E+00  0.4000E+01
 -10.690  0.0000E+00  0.4000E+01
 -10.680  0.0000E+00  0.4000E+01
 -10.670  0.0000E+00  0.4000E+01
 -10.660  0.0000E+00  0.4000E+01
 -10.650  0.0000E+00  0.4000E+01
 -10.640  0.0000E+00  0.4000E+01
 -10.630  0.0000E+00  0.4000E+01
 -10.620  0.0000E+00  0.4000E+01
 -10.610  0.0000E+00  0.4000E+01
 -10.600  0.0000E+00  0.4000E+01
 -10.590  0.0000E+00  0.4000E+01
 -10.580  0.0000E+00  0.4000E+01
 -10.570  0.0000E+00  0.4000E+01
 -10.560  0.0000E+00  0.4000E+01
 -10.550  0.0000E+00  0.4000E+01
 -10.540  0.0000E+00  0.4000E+01
 -10.530  0.0000E+00  0.4000E+01
 -10.520  0.0000E+00  0.4000E+01
 -10.510  0.0000E+00  0.4000E+01
 -10.500  0.0000E+00  0.4000E+01
 -10.490  0.0000E+00  0.4000E+01
 -10.480  0.0000E+00  0.4000E+01
 -10.470  0.0000E+00  0.4000E+01
 -10.460  0.0000E+00  0.4000E+01
 -10.450  0.0000E+00  0.4000E+01
 -10.440  0.0000E+00  0.4000E+01
 -10.430  0.0000E+00  0.4000E+01
 -10.420  0.0000E+00  0.4000E+01
 -10.410  0.0000E+00  0.4000E+01
 -10.400  0.0000E+00  0.4000E+01
 -10.390  0.0000E+00  0.4000E+01
 -10.380  0.0000E+00  0.4000E+01
 -10.370  0.0000E+00  0.4000E+01
 -10.360  0.0000E+00  0.4000E+01
 -10.350  0.0000E+00  0.4000E+01
 -10.340  0.0000E+00  0.4000E+01
 -10.330  0.0000E+00  0.4000E+01
 -10.320  0.0000E+00  0.4000E+01
 -10.310  0.0000E+00  0.4000E+01
 -10.300  0.0000E+00  0.4000E+01
 -10.290  0.0000E+00  0.4000E+01
 -10.280  0.0000E+00  0.4000E+01
 -10.270  0.0000E+00  0.4000E+01
 -10.260  0.0000E+00  0.4000E+01
 -10.250  0.0000E+00  0.4000E+01
 -10.240  0.0000E+00  0.4000E+01
 -10.230  0.0000E+00  0.4000E+01
 -10.220  0.0000E+00  0.4000E+01
 -10.210  0.0000E+00  0.4000E+01
 -10.200  0.0000E+00  0.4000E+01
 -10.190  0.0000E+00  0.4000E+01
 -10.180  0.0000E+00  0.4000E+01
 -10.170  0.0000E+00  0.4000E+01
 -10.160  0.0000E+00  0.4000E+01
 -10.150  0.0000E+00  0.4000E+01
 -10.140  0.0000E+00  0.4000E+01
 -10.130  0.0000E+00  0.4000E+01
 -10.120  0.0000E+00  0.4000E+01
 -10.110  0.0000E+00  0.4000E+01
 -10.100  0.0000E+00  0.4000E+01
 -10.090  0.0000E+00  0.4000E+01
 -10.080  0.0000E+00  0.4000E+01
 -10.070  0.0000E+00  0.4000E+01
 -10.060  0.0000E+00  0.4000E+01
 -10.050  0.0000E+00  0.4000E+01
 -10.040  0.0000E+00  0.4000E+01
 -10.030  0.0000E+00  0.4000E+01
 -10.020  0.0000E+00  0.4000E+01
 -10.010  0.0000E+00  0.4000E+01
 -10.000  0.0000E+00  0.4000E+01
  -9.990  0.0000E+00  0.4000E+01
  -9.980  0.0000E+00  0.4000E+01
  -9.970  0.0000E+00  0.4000E+01
  -9.960  0.0000E+00  0.4000E+01
  -9.950  0.0000E+00  0.4000E+01
  -9.940  0.0000E+00  0.4000E+01
  -9.930  0.0000E+00  0.4000E+01
  -9.920  0.0000E+00  0.4000E+01
  -9.910  0.0000E+00  0.4000E+01
  -9.900  0.0000E+00  0.4000E+01
  -9.890  0.0000E+00  0.4000E+01
  -9.880  0.0000E+00  0.4000E+01
  -9.870  0.0000E+00  0.4000E+01
  -9.860  0.0000E+00  0.4000E+01
  -9.850  0.0000E+00  0.4000E+01
  -9.840  0.0000E+00  0.4000E+01
  -9.830  0.0000E+00  0.4000E+01
  -9.820  0.0000E+00  0.4000E+01
  -9.810  0.0000E+00  0.4000E+01
  -9.800  0.0000E+00  0.4000E+01
  -9.790  0.0000E+00  0.4000E+01
  -9.780  0.0000E+00  0.4000E+01
  -9.770  0.0000E+00  0.4000E+01
  -9.760  0.0000E+00  0.4000E+01
  -9.750  0.0000E+00  0.4000E+01
  -9.740  0.0000E+00  0.4000E+01
  -9.730  0.0000E+00  0.4000E+01
  -9.720  0.0000E+00  0.4000E+01
  -9.710  0.0000E+00  0.4000E+01
  -9.700  0.0000E+00  0.4000E+01
  -9.690  0.0000E+00  0.4000E+01
  -9.680  0.0000E+00  0.4000E+01
  -9.670  0.0000E+00  0.4000E+01
  -9.660  0.0000E+00  0.4000E+01
  -9.650  0.0000E+00  0.4000E+01
  -9.640  0.0000E+00  0.4000E+01
  -9.630  0.0000E+00  0.4000E+01
  -9.620  0.0000E+00  0.4000E+01
  -9.610  0.0000E+00  0.4000E+01
  -9.600  0.0000E+00  0.4000E+01
  -9.590  0.0000E+00  0.4000E+01
  -9.580  0.0000E+00  0.4000E+01
  -9.570  0.0000E+00  0.4000E+01
  -9.560  0.0000E+00  0.4000E+01
  -9.550  0.0000E+00  0.4000E+01
  -9.540  0.0000E+00  0.4000E+01
  -9.530  0.0000E+00  0.4000E+01
  -9.520  0.1445E+01  0.4009E+01
  -9.510  0.1594E+01  0.4023E+01
  -9.500  0.1463E+01  0.4038E+01
  -9.490  0.1462E+01  0.4053E+01
  -9.480  0.1620E+01  0.4069E+01
  -9.470  0.1556E+01  0.4084E+01
  -9.460  0.1487E+01  0.4099E+01
  -9.450  0.1595E+01  0.4114E+01
  -9.440  0.1560E+01  0.4131E+01
  -9.430  0.1540E+01  0.4146E+01
  -9.420  0.1541E+01  0.4161E+01
  -9.410  0.1628E+01  0.4177E+01
  -9.400  0.1672E+01  0.4194E+01
  -9.390  0.1603E+01  0.4210E+01
  -9.380  0.1600E+01  0.4226E+01
  -9.370  0.1630E+01  0.4242E+01
  -9.360  0.1699E+01  0.4259E+01
  -9.350  0.1710E+01  0.4276E+01
  -9.340  0.1672E+01  0.4293E+01
  -9.330  0.1686E+01  0.4309E+01
  -9.320  0.1699E+01  0.4326E+01
  -9.310  0.1756E+01  0.4344E+01
  -9.300  0.1781E+01  0.4361E+01
  -9.290  0.1770E+01  0.4379E+01
  -9.280  0.1788E+01  0.4397E+01
  -9.270  0.1808E+01  0.4415E+01
  -9.260  0.1829E+01  0.4433E+01
  -9.250  0.1876E+01  0.4452E+01
  -9.240  0.1913E+01  0.4470E+01
  -9.230  0.1915E+01  0.4490E+01
  -9.220  0.1952E+01  0.4509E+01
  -9.210  0.1980E+01  0.4529E+01
  -9.200  0.2007E+01  0.4549E+01
  -9.190  0.2074E+01  0.4569E+01
  -9.180  0.2129E+01  0.4590E+01
  -9.170  0.2149E+01  0.4611E+01
  -9.160  0.2228E+01  0.4633E+01
  -9.150  0.2269E+01  0.4656E+01
  -9.140  0.2339E+01  0.4679E+01
  -9.130  0.2462E+01  0.4703E+01
  -9.120  0.2601E+01  0.4728E+01
  -9.110  0.2792E+01  0.4755E+01
  -9.100  0.2900E+01  0.4783E+01
  -9.090  0.3214E+01  0.4814E+01
  -9.080  0.3848E+01  0.4854E+01
  -9.070  0.3492E+01  0.4892E+01
  -9.060  0.2904E+01  0.4923E+01
  -9.050  0.2562E+01  0.4950E+01
  -9.040  0.2422E+01  0.4975E+01
  -9.030  0.2227E+01  0.4999E+01
  -9.020  0.2109E+01  0.5020E+01
  -9.010  0.2061E+01  0.5041E+01
  -9.000  0.1918E+01  0.5061E+01
  -8.990  0.1842E+01  0.5079E+01
  -8.980  0.1751E+01  0.5097E+01
  -8.970  0.1713E+01  0.5115E+01
  -8.960  0.1633E+01  0.5131E+01
  -8.950  0.1548E+01  0.5147E+01
  -8.940  0.1511E+01  0.5162E+01
  -8.930  0.1554E+01  0.5178E+01
  -8.920  0.1419E+01  0.5193E+01
  -8.910  0.1360E+01  0.5206E+01
  -8.900  0.1300E+01  0.5220E+01
  -8.890  0.1628E+01  0.5232E+01
  -8.880  0.1144E+01  0.5246E+01
  -8.870  0.1010E+01  0.5257E+01
  -8.860  0.9500E+00  0.5267E+01
  -8.850  0.9339E+00  0.5276E+01
  -8.840  0.9171E+00  0.5285E+01
  -8.830  0.9083E+00  0.5294E+01
  -8.820  0.9005E+00  0.5304E+01
  -8.810  0.8875E+00  0.5312E+01
  -8.800  0.8746E+00  0.5321E+01
  -8.790  0.8620E+00  0.5330E+01
  -8.780  0.8495E+00  0.5339E+01
  -8.770  0.8411E+00  0.5347E+01
  -8.760  0.8340E+00  0.5355E+01
  -8.750  0.8280E+00  0.5364E+01
  -8.740  0.8219E+00  0.5372E+01
  -8.730  0.8116E+00  0.5380E+01
  -8.720  0.8018E+00  0.5388E+01
  -8.710  0.7945E+00  0.5396E+01
  -8.700  0.7875E+00  0.5404E+01
  -8.690  0.7817E+00  0.5412E+01
  -8.680  0.7764E+00  0.5420E+01
  -8.670  0.7730E+00  0.5427E+01
  -8.660  0.7722E+00  0.5435E+01
  -8.650  0.7661E+00  0.5443E+01
  -8.640  0.7603E+00  0.5450E+01
  -8.630  0.7545E+00  0.5458E+01
  -8.620  0.7499E+00  0.5466E+01
  -8.610  0.7459E+00  0.5473E+01
  -8.600  0.7428E+00  0.5480E+01
  -8.590  0.7444E+00  0.5488E+01
  -8.580  0.7538E+00  0.5495E+01
  -8.570  0.7490E+00  0.5503E+01
  -8.560  0.7444E+00  0.5510E+01
  -8.550  0.7420E+00  0.5518E+01
  -8.540  0.7409E+00  0.5525E+01
  -8.530  0.7415E+00  0.5533E+01
  -8.520  0.7435E+00  0.5540E+01
  -8.510  0.7481E+00  0.5548E+01
  -8.500  0.7579E+00  0.5555E+01
  -8.490  0.1339E+01  0.5566E+01
  -8.480  0.1496E+01  0.5581E+01
  -8.470  0.1523E+01  0.5596E+01
  -8.460  0.1496E+01  0.5611E+01
  -8.450  0.1555E+01  0.5626E+01
  -8.440  0.1624E+01  0.5642E+01
  -8.430  0.1717E+01  0.5659E+01
  -8.420  0.1902E+01  0.5677E+01
  -8.410  0.1878E+01  0.5697E+01
  -8.400  0.1965E+01  0.5717E+01
  -8.390  0.2080E+01  0.5737E+01
  -8.380  0.2150E+01  0.5758E+01
  -8.370  0.2292E+01  0.5780E+01
  -8.360  0.2558E+01  0.5804E+01
  -8.350  0.2756E+01  0.5831E+01
  -8.340  0.2947E+01  0.5859E+01
  -8.330  0.3440E+01  0.5891E+01
  -8.320  0.4968E+01  0.5931E+01
  -8.310  0.6781E+01  0.5997E+01
  -8.300  0.2960E+00  0.6034E+01
  -8.290  0.3111E+00  0.6037E+01
  -8.280  0.2999E+00  0.6040E+01
  -8.270  0.3263E+00  0.6043E+01
  -8.260  0.3515E+00  0.6046E+01
  -8.250  0.1208E+01  0.6052E+01
  -8.240  0.1083E+01  0.6064E+01
  -8.230  0.1071E+01  0.6075E+01
  -8.220  0.1149E+01  0.6086E+01
  -8.210  0.1101E+01  0.6099E+01
  -8.200  0.1118E+01  0.6110E+01
  -8.190  0.1160E+01  0.6121E+01
  -8.180  0.1209E+01  0.6133E+01
  -8.170  0.1282E+01  0.6145E+01
  -8.160  0.1175E+01  0.6158E+01
  -8.150  0.1202E+01  0.6169E+01
  -8.140  0.1250E+01  0.6182E+01
  -8.130  0.1198E+01  0.6194E+01
  -8.120  0.1227E+01  0.6206E+01
  -8.110  0.1265E+01  0.6218E+01
  -8.100  0.1316E+01  0.6231E+01
  -8.090  0.1315E+01  0.6244E+01
  -8.080  0.1268E+01  0.6257E+01
  -8.070  0.1244E+01  0.6270E+01
  -8.060  0.1268E+01  0.6282E+01
  -8.050  0.1301E+01  0.6295E+01
  -8.040  0.1333E+01  0.6308E+01
  -8.030  0.1368E+01  0.6322E+01
  -8.020  0.1377E+01  0.6335E+01
  -8.010  0.1378E+01  0.6349E+01
  -8.000  0.1361E+01  0.6363E+01
  -7.990  0.1341E+01  0.6376E+01
  -7.980  0.1386E+01  0.6390E+01
  -7.970  0.1420E+01  0.6404E+01
  -7.960  0.1435E+01  0.6418E+01
  -7.950  0.1440E+01  0.6433E+01
  -7.940  0.1482E+01  0.6447E+01
  -7.930  0.1553E+01  0.6462E+01
  -7.920  0.1671E+01  0.6478E+01
  -7.910  0.1728E+01  0.6496E+01
  -7.900  0.1725E+01  0.6513E+01
  -7.890  0.1844E+01  0.6530E+01
  -7.880  0.1539E+01  0.6547E+01
  -7.870  0.1419E+01  0.6562E+01
  -7.860  0.1311E+01  0.6575E+01
  -7.850  0.1231E+01  0.6588E+01
  -7.840  0.1233E+01  0.6600E+01
  -7.830  0.1235E+01  0.6612E+01
  -7.820  0.1238E+01  0.6625E+01
  -7.810  0.1241E+01  0.6637E+01
  -7.800  0.1276E+01  0.6649E+01
  -7.790  0.2065E+01  0.6666E+01
  -7.780  0.1678E+01  0.6683E+01
  -7.770  0.1709E+01  0.6700E+01
  -7.760  0.1720E+01  0.6717E+01
  -7.750  0.1724E+01  0.6734E+01
  -7.740  0.1801E+01  0.6752E+01
  -7.730  0.1815E+01  0.6770E+01
  -7.720  0.1813E+01  0.6788E+01
  -7.710  0.1796E+01  0.6806E+01
  -7.700  0.1774E+01  0.6824E+01
  -7.690  0.1806E+01  0.6842E+01
  -7.680  0.1990E+01  0.6861E+01
  -7.670  0.1897E+01  0.6880E+01
  -7.660  0.1887E+01  0.6899E+01
  -7.650  0.1882E+01  0.6918E+01
  -7.640  0.1895E+01  0.6937E+01
  -7.630  0.1913E+01  0.6956E+01
  -7.620  0.1958E+01  0.6975E+01
  -7.610  0.2021E+01  0.6995E+01
  -7.600  0.2074E+01  0.7016E+01
  -7.590  0.2364E+01  0.7037E+01
  -7.580  0.2201E+01  0.7060E+01
  -7.570  0.2231E+01  0.7082E+01
  -7.560  0.2286E+01  0.7105E+01
  -7.550  0.2377E+01  0.7128E+01
  -7.540  0.2470E+01  0.7152E+01
  -7.530  0.2609E+01  0.7178E+01
  -7.520  0.3312E+01  0.7206E+01
  -7.510  0.2945E+01  0.7238E+01
  -7.500  0.2922E+01  0.7268E+01
  -7.490  0.2610E+01  0.7295E+01
  -7.480  0.2465E+01  0.7320E+01
  -7.470  0.2379E+01  0.7345E+01
  -7.460  0.2289E+01  0.7368E+01
  -7.450  0.2320E+01  0.7391E+01
  -7.440  0.2298E+01  0.7414E+01
  -7.430  0.2286E+01  0.7437E+01
  -7.420  0.2259E+01  0.7460E+01
  -7.410  0.2217E+01  0.7482E+01
  -7.400  0.2183E+01  0.7504E+01
  -7.390  0.3589E+01  0.7529E+01
  -7.380  0.5011E+01  0.7573E+01
  -7.370  0.5892E+01  0.7629E+01
  -7.360  0.6041E+01  0.7693E+01
  -7.350  0.5372E+01  0.7749E+01
  -7.340  0.4634E+01  0.7799E+01
  -7.330  0.4407E+01  0.7844E+01
  -7.320  0.4220E+01  0.7887E+01
  -7.310  0.4153E+01  0.7929E+01
  -7.300  0.4119E+01  0.7970E+01
  -7.290  0.3997E+01  0.8011E+01
  -7.280  0.3961E+01  0.8051E+01
  -7.270  0.3962E+01  0.8090E+01
  -7.260  0.4000E+01  0.8130E+01
  -7.250  0.4082E+01  0.8170E+01
  -7.240  0.4140E+01  0.8211E+01
  -7.230  0.4263E+01  0.8254E+01
  -7.220  0.4356E+01  0.8297E+01
  -7.210  0.4480E+01  0.8341E+01
  -7.200  0.4744E+01  0.8387E+01
  -7.190  0.5129E+01  0.8436E+01
  -7.180  0.5741E+01  0.8490E+01
  -7.170  0.5503E+01  0.8548E+01
  -7.160  0.6425E+01  0.8617E+01
  -7.150  0.4168E+01  0.8667E+01
  -7.140  0.3144E+01  0.8703E+01
  -7.130  0.2458E+01  0.8730E+01
  -7.120  0.2668E+01  0.8755E+01
  -7.110  0.2933E+01  0.8783E+01
  -7.100  0.3193E+01  0.8814E+01
  -7.090  0.5341E+01  0.8856E+01
  -7.080  0.6740E+01  0.8918E+01
  -7.070  0.5422E+01  0.8978E+01
  -7.060  0.5278E+01  0.9034E+01
  -7.050  0.4609E+01  0.9082E+01
  -7.040  0.3396E+01  0.9122E+01
  -7.030  0.2628E+01  0.9150E+01
  -7.020  0.2486E+01  0.9177E+01
  -7.010  0.2415E+01  0.9201E+01
  -7.000  0.2307E+01  0.9225E+01
  -6.990  0.2240E+01  0.9248E+01
  -6.980  0.2478E+01  0.9271E+01
  -6.970  0.2148E+01  0.9293E+01
  -6.960  0.2101E+01  0.9314E+01
  -6.950  0.2278E+01  0.9336E+01
  -6.940  0.2040E+01  0.9356E+01
  -6.930  0.1983E+01  0.9376E+01
  -6.920  0.2069E+01  0.9396E+01
  -6.910  0.1946E+01  0.9416E+01
  -6.900  0.1891E+01  0.9436E+01
  -6.890  0.1898E+01  0.9454E+01
  -6.880  0.1873E+01  0.9474E+01
  -6.870  0.1815E+01  0.9492E+01
  -6.860  0.1773E+01  0.9510E+01
  -6.850  0.1904E+01  0.9528E+01
  -6.840  0.1786E+01  0.9546E+01
  -6.830  0.1728E+01  0.9564E+01
  -6.820  0.1733E+01  0.9581E+01
  -6.810  0.1739E+01  0.9598E+01
  -6.800  0.1682E+01  0.9616E+01
  -6.790  0.1637E+01  0.9632E+01
  -6.780  0.1692E+01  0.9649E+01
  -6.770  0.1670E+01  0.9666E+01
  -6.760  0.1606E+01  0.9682E+01
  -6.750  0.1616E+01  0.9698E+01
  -6.740  0.1681E+01  0.9714E+01
  -6.730  0.1606E+01  0.9731E+01
  -6.720  0.1549E+01  0.9746E+01
  -6.710  0.1504E+01  0.9762E+01
  -6.700  0.1585E+01  0.9778E+01
  -6.690  0.1514E+01  0.9793E+01
  -6.680  0.1533E+01  0.9808E+01
  -6.670  0.1606E+01  0.9824E+01
  -6.660  0.1506E+01  0.9840E+01
  -6.650  0.1505E+01  0.9855E+01
  -6.640  0.1546E+01  0.9870E+01
  -6.630  0.1447E+01  0.9885E+01
  -6.620  0.1440E+01  0.9899E+01
  -6.610  0.1502E+01  0.9914E+01
  -6.600  0.1479E+01  0.9929E+01
  -6.590  0.1487E+01  0.9944E+01
  -6.580  0.1529E+01  0.9959E+01
  -6.570  0.1412E+01  0.9974E+01
  -6.560  0.1381E+01  0.9990E+01
  -6.550  0.1295E+01  0.1001E+02
  -6.540  0.1149E+01  0.1002E+02
  -6.530  0.1775E+01  0.1003E+02
  -6.520  0.1620E+01  0.1005E+02
  -6.510  0.1535E+01  0.1006E+02
  -6.500  0.1753E+01  0.1008E+02
  -6.490  0.1894E+01  0.1010E+02
  -6.480  0.1782E+01  0.1012E+02
  -6.470  0.1835E+01  0.1013E+02
  -6.460  0.1902E+01  0.1015E+02
  -6.450  0.2167E+01  0.1017E+02
  -6.440  0.2154E+01  0.1020E+02
  -6.430  0.2104E+01  0.1022E+02
  -6.420  0.2217E+01  0.1024E+02
  -6.410  0.3012E+01  0.1027E+02
  -6.400  0.3150E+01  0.1030E+02
  -6.390  0.3427E+01  0.1033E+02
  -6.380  0.4128E+01  0.1037E+02
  -6.370  0.4035E+01  0.1041E+02
  -6.360  0.3833E+01  0.1045E+02
  -6.350  0.3402E+01  0.1048E+02
  -6.340  0.3427E+01  0.1052E+02
  -6.330  0.3321E+01  0.1055E+02
  -6.320  0.3316E+01  0.1058E+02
  -6.310  0.3362E+01  0.1062E+02
  -6.300  0.3300E+01  0.1065E+02
  -6.290  0.3280E+01  0.1068E+02
  -6.280  0.3303E+01  0.1072E+02
  -6.270  0.3351E+01  0.1075E+02
  -6.260  0.3348E+01  0.1078E+02
  -6.250  0.3371E+01  0.1082E+02
  -6.240  0.3450E+01  0.1085E+02
  -6.230  0.3545E+01  0.1089E+02
  -6.220  0.3591E+01  0.1092E+02
  -6.210  0.3699E+01  0.1096E+02
  -6.200  0.3796E+01  0.1099E+02
  -6.190  0.3926E+01  0.1103E+02
  -6.180  0.4099E+01  0.1107E+02
  -6.170  0.4260E+01  0.1112E+02
  -6.160  0.4776E+01  0.1116E+02
  -6.150  0.5201E+01  0.1121E+02
  -6.140  0.4798E+01  0.1127E+02
  -6.130  0.4554E+01  0.1131E+02
  -6.120  0.4418E+01  0.1136E+02
  -6.110  0.4308E+01  0.1140E+02
  -6.100  0.4341E+01  0.1144E+02
  -6.090  0.4182E+01  0.1149E+02
  -6.080  0.4220E+01  0.1153E+02
  -6.070  0.4350E+01  0.1157E+02
  -6.060  0.4496E+01  0.1162E+02
  -6.050  0.4853E+01  0.1166E+02
  -6.040  0.5403E+01  0.1171E+02
  -6.030  0.4824E+01  0.1176E+02
  -6.020  0.4910E+01  0.1181E+02
  -6.010  0.5525E+01  0.1187E+02
  -6.000  0.5075E+01  0.1192E+02
  -5.990  0.4660E+01  0.1195E+02
  -5.980  0.2429E+01  0.1198E+02
  -5.970  0.1377E+01  0.1200E+02
  -5.960  0.4745E+00  0.1201E+02
  -5.950  0.9810E+00  0.1202E+02
  -5.940  0.1430E+01  0.1203E+02
  -5.930  0.2591E+01  0.1205E+02
  -5.920  0.2487E+01  0.1207E+02
  -5.910  0.2230E+01  0.1210E+02
  -5.900  0.9394E+00  0.1211E+02
  -5.890  0.4725E+00  0.1212E+02
  -5.880  0.4556E+00  0.1212E+02
  -5.870  0.4387E+00  0.1213E+02
  -5.860  0.4196E+00  0.1213E+02
  -5.850  0.4019E+00  0.1214E+02
  -5.840  0.3433E+00  0.1214E+02
  -5.830  0.3130E+00  0.1214E+02
  -5.820  0.3018E+00  0.1215E+02
  -5.810  0.2988E+00  0.1215E+02
  -5.800  0.2962E+00  0.1215E+02
  -5.790  0.2935E+00  0.1216E+02
  -5.780  0.2927E+00  0.1216E+02
  -5.770  0.2926E+00  0.1216E+02
  -5.760  0.2925E+00  0.1217E+02
  -5.750  0.2924E+00  0.1217E+02
  -5.740  0.2923E+00  0.1217E+02
  -5.730  0.2922E+00  0.1217E+02
  -5.720  0.2921E+00  0.1218E+02
  -5.710  0.2920E+00  0.1218E+02
  -5.700  0.2936E+00  0.1218E+02
  -5.690  0.2984E+00  0.1219E+02
  -5.680  0.3032E+00  0.1219E+02
  -5.670  0.3027E+00  0.1219E+02
  -5.660  0.3013E+00  0.1219E+02
  -5.650  0.3016E+00  0.1220E+02
  -5.640  0.3020E+00  0.1220E+02
  -5.630  0.2987E+00  0.1220E+02
  -5.620  0.2970E+00  0.1221E+02
  -5.610  0.2962E+00  0.1221E+02
  -5.600  0.2954E+00  0.1221E+02
  -5.590  0.2957E+00  0.1222E+02
  -5.580  0.2987E+00  0.1222E+02
  -5.570  0.3016E+00  0.1222E+02
  -5.560  0.3045E+00  0.1222E+02
  -5.550  0.3074E+00  0.1223E+02
  -5.540  0.3104E+00  0.1223E+02
  -5.530  0.3129E+00  0.1223E+02
  -5.520  0.3152E+00  0.1224E+02
  -5.510  0.3175E+00  0.1224E+02
  -5.500  0.3197E+00  0.1224E+02
  -5.490  0.3813E+00  0.1225E+02
  -5.480  0.1400E+01  0.1226E+02
  -5.470  0.1902E+01  0.1227E+02
  -5.460  0.1995E+01  0.1229E+02
  -5.450  0.2052E+01  0.1231E+02
  -5.440  0.2057E+01  0.1234E+02
  -5.430  0.2220E+01  0.1236E+02
  -5.420  0.2246E+01  0.1238E+02
  -5.410  0.2272E+01  0.1240E+02
  -5.400  0.2544E+01  0.1243E+02
  -5.390  0.2670E+01  0.1245E+02
  -5.380  0.3114E+01  0.1248E+02
  -5.370  0.2752E+01  0.1251E+02
  -5.360  0.2649E+01  0.1254E+02
  -5.350  0.2548E+01  0.1257E+02
  -5.340  0.2332E+01  0.1259E+02
  -5.330  0.2207E+01  0.1261E+02
  -5.320  0.2168E+01  0.1263E+02
  -5.310  0.2129E+01  0.1266E+02
  -5.300  0.2092E+01  0.1268E+02
  -5.290  0.2051E+01  0.1270E+02
  -5.280  0.2035E+01  0.1272E+02
  -5.270  0.1974E+01  0.1274E+02
  -5.260  0.1964E+01  0.1276E+02
  -5.250  0.1958E+01  0.1278E+02
  -5.240  0.1952E+01  0.1280E+02
  -5.230  0.1952E+01  0.1282E+02
  -5.220  0.1956E+01  0.1284E+02
  -5.210  0.1969E+01  0.1286E+02
  -5.200  0.1977E+01  0.1287E+02
  -5.190  0.1970E+01  0.1289E+02
  -5.180  0.1986E+01  0.1291E+02
  -5.170  0.2003E+01  0.1293E+02
  -5.160  0.2017E+01  0.1295E+02
  -5.150  0.2037E+01  0.1297E+02
  -5.140  0.2057E+01  0.1300E+02
  -5.130  0.2083E+01  0.1302E+02
  -5.120  0.2229E+01  0.1304E+02
  -5.110  0.2779E+01  0.1306E+02
  -5.100  0.2368E+01  0.1309E+02
  -5.090  0.2016E+01  0.1311E+02
  -5.080  0.1870E+01  0.1313E+02
  -5.070  0.1750E+01  0.1315E+02
  -5.060  0.1719E+01  0.1316E+02
  -5.050  0.1706E+01  0.1318E+02
  -5.040  0.1714E+01  0.1320E+02
  -5.030  0.1640E+01  0.1322E+02
  -5.020  0.1526E+01  0.1323E+02
  -5.010  0.1448E+01  0.1325E+02
  -5.000  0.1436E+01  0.1326E+02
  -4.990  0.1444E+01  0.1327E+02
  -4.980  0.1502E+01  0.1329E+02
  -4.970  0.1541E+01  0.1330E+02
  -4.960  0.1567E+01  0.1332E+02
  -4.950  0.1584E+01  0.1334E+02
  -4.940  0.1599E+01  0.1335E+02
  -4.930  0.1850E+01  0.1337E+02
  -4.920  0.1791E+01  0.1339E+02
  -4.910  0.1798E+01  0.1341E+02
  -4.900  0.1823E+01  0.1342E+02
  -4.890  0.1943E+01  0.1344E+02
  -4.880  0.1870E+01  0.1346E+02
  -4.870  0.1902E+01  0.1348E+02
  -4.860  0.1896E+01  0.1350E+02
  -4.850  0.1914E+01  0.1352E+02
  -4.840  0.1925E+01  0.1354E+02
  -4.830  0.1933E+01  0.1356E+02
  -4.820  0.1968E+01  0.1358E+02
  -4.810  0.2121E+01  0.1360E+02
  -4.800  0.2088E+01  0.1362E+02
  -4.790  0.2133E+01  0.1364E+02
  -4.780  0.2461E+01  0.1366E+02
  -4.770  0.2688E+01  0.1369E+02
  -4.760  0.3028E+01  0.1371E+02
  -4.750  0.2747E+01  0.1375E+02
  -4.740  0.2857E+01  0.1378E+02
  -4.730  0.1297E+01  0.1380E+02
  -4.720  0.1059E+01  0.1381E+02
  -4.710  0.1088E+01  0.1382E+02
  -4.700  0.1114E+01  0.1383E+02
  -4.690  0.1125E+01  0.1384E+02
  -4.680  0.1123E+01  0.1385E+02
  -4.670  0.1160E+01  0.1387E+02
  -4.660  0.1205E+01  0.1388E+02
  -4.650  0.1256E+01  0.1389E+02
  -4.640  0.1308E+01  0.1390E+02
  -4.630  0.1354E+01  0.1392E+02
  -4.620  0.1404E+01  0.1393E+02
  -4.610  0.1387E+01  0.1394E+02
  -4.600  0.1433E+01  0.1396E+02
  -4.590  0.1607E+01  0.1397E+02
  -4.580  0.1518E+01  0.1399E+02
  -4.570  0.1583E+01  0.1400E+02
  -4.560  0.1651E+01  0.1402E+02
  -4.550  0.1718E+01  0.1404E+02
  -4.540  0.1964E+01  0.1406E+02
  -4.530  0.2329E+01  0.1408E+02
  -4.520  0.2617E+01  0.1410E+02
  -4.510  0.2237E+01  0.1413E+02
  -4.500  0.2069E+01  0.1415E+02
  -4.490  0.1911E+01  0.1417E+02
  -4.480  0.1915E+01  0.1419E+02
  -4.470  0.1827E+01  0.1420E+02
  -4.460  0.1813E+01  0.1422E+02
  -4.450  0.1751E+01  0.1424E+02
  -4.440  0.1678E+01  0.1426E+02
  -4.430  0.1578E+01  0.1427E+02
  -4.420  0.1532E+01  0.1429E+02
  -4.410  0.1603E+01  0.1431E+02
  -4.400  0.1585E+01  0.1432E+02
  -4.390  0.1513E+01  0.1434E+02
  -4.380  0.1555E+01  0.1435E+02
  -4.370  0.1436E+01  0.1437E+02
  -4.360  0.1575E+01  0.1438E+02
  -4.350  0.1425E+01  0.1440E+02
  -4.340  0.1290E+01  0.1441E+02
  -4.330  0.8451E+00  0.1442E+02
  -4.320  0.7397E+00  0.1443E+02
  -4.310  0.7400E+00  0.1444E+02
  -4.300  0.7402E+00  0.1444E+02
  -4.290  0.7404E+00  0.1445E+02
  -4.280  0.7406E+00  0.1446E+02
  -4.270  0.7439E+00  0.1447E+02
  -4.260  0.7375E+00  0.1447E+02
  -4.250  0.7364E+00  0.1448E+02
  -4.240  0.7371E+00  0.1449E+02
  -4.230  0.7384E+00  0.1450E+02
  -4.220  0.7396E+00  0.1450E+02
  -4.210  0.7410E+00  0.1451E+02
  -4.200  0.7425E+00  0.1452E+02
  -4.190  0.7436E+00  0.1453E+02
  -4.180  0.7464E+00  0.1453E+02
  -4.170  0.7494E+00  0.1454E+02
  -4.160  0.7522E+00  0.1455E+02
  -4.150  0.7537E+00  0.1456E+02
  -4.140  0.7583E+00  0.1456E+02
  -4.130  0.7634E+00  0.1457E+02
  -4.120  0.7663E+00  0.1458E+02
  -4.110  0.7693E+00  0.1459E+02
  -4.100  0.7722E+00  0.1459E+02
  -4.090  0.7751E+00  0.1460E+02
  -4.080  0.7782E+00  0.1461E+02
  -4.070  0.7820E+00  0.1462E+02
  -4.060  0.7883E+00  0.1463E+02
  -4.050  0.7887E+00  0.1463E+02
  -4.040  0.7915E+00  0.1464E+02
  -4.030  0.7944E+00  0.1465E+02
  -4.020  0.7980E+00  0.1466E+02
  -4.010  0.8043E+00  0.1467E+02
  -4.000  0.8108E+00  0.1467E+02
  -3.990  0.8163E+00  0.1468E+02
  -3.980  0.8214E+00  0.1469E+02
  -3.970  0.8264E+00  0.1470E+02
  -3.960  0.8313E+00  0.1471E+02
  -3.950  0.8368E+00  0.1471E+02
  -3.940  0.8423E+00  0.1472E+02
  -3.930  0.8478E+00  0.1473E+02
  -3.920  0.8532E+00  0.1474E+02
  -3.910  0.8587E+00  0.1475E+02
  -3.900  0.8676E+00  0.1476E+02
  -3.890  0.8755E+00  0.1477E+02
  -3.880  0.8954E+00  0.1477E+02
  -3.870  0.9075E+00  0.1478E+02
  -3.860  0.9187E+00  0.1479E+02
  -3.850  0.9272E+00  0.1480E+02
  -3.840  0.9360E+00  0.1481E+02
  -3.830  0.9458E+00  0.1482E+02
  -3.820  0.9615E+00  0.1483E+02
  -3.810  0.1215E+01  0.1484E+02
  -3.800  0.1239E+01  0.1485E+02
  -3.790  0.1298E+01  0.1487E+02
  -3.780  0.1293E+01  0.1488E+02
  -3.770  0.1301E+01  0.1489E+02
  -3.760  0.1348E+01  0.1491E+02
  -3.750  0.1397E+01  0.1492E+02
  -3.740  0.1415E+01  0.1493E+02
  -3.730  0.1439E+01  0.1495E+02
  -3.720  0.1499E+01  0.1496E+02
  -3.710  0.1560E+01  0.1498E+02
  -3.700  0.1600E+01  0.1499E+02
  -3.690  0.1635E+01  0.1501E+02
  -3.680  0.1693E+01  0.1503E+02
  -3.670  0.1753E+01  0.1504E+02
  -3.660  0.1894E+01  0.1506E+02
  -3.650  0.2043E+01  0.1508E+02
  -3.640  0.2108E+01  0.1510E+02
  -3.630  0.2258E+01  0.1513E+02
  -3.620  0.2374E+01  0.1515E+02
  -3.610  0.2366E+01  0.1517E+02
  -3.600  0.2371E+01  0.1520E+02
  -3.590  0.2431E+01  0.1522E+02
  -3.580  0.2083E+01  0.1524E+02
  -3.570  0.1140E+01  0.1526E+02
  -3.560  0.9574E+00  0.1527E+02
  -3.550  0.9177E+00  0.1528E+02
  -3.540  0.8804E+00  0.1529E+02
  -3.530  0.8720E+00  0.1530E+02
  -3.520  0.1006E+01  0.1531E+02
  -3.510  0.8455E+00  0.1532E+02
  -3.500  0.8185E+00  0.1532E+02
  -3.490  0.8082E+00  0.1533E+02
  -3.480  0.7966E+00  0.1534E+02
  -3.470  0.7839E+00  0.1535E+02
  -3.460  0.7674E+00  0.1536E+02
  -3.450  0.7471E+00  0.1536E+02
  -3.440  0.7355E+00  0.1537E+02
  -3.430  0.7386E+00  0.1538E+02
  -3.420  0.7311E+00  0.1539E+02
  -3.410  0.7237E+00  0.1539E+02
  -3.400  0.7159E+00  0.1540E+02
  -3.390  0.7045E+00  0.1541E+02
  -3.380  0.6860E+00  0.1542E+02
  -3.370  0.6795E+00  0.1542E+02
  -3.360  0.6761E+00  0.1543E+02
  -3.350  0.6742E+00  0.1544E+02
  -3.340  0.1268E+01  0.1545E+02
  -3.330  0.2182E+01  0.1547E+02
  -3.320  0.2222E+01  0.1549E+02
  -3.310  0.2231E+01  0.1551E+02
  -3.300  0.2033E+01  0.1553E+02
  -3.290  0.1863E+01  0.1555E+02
  -3.280  0.1770E+01  0.1557E+02
  -3.270  0.1729E+01  0.1559E+02
  -3.260  0.1734E+01  0.1560E+02
  -3.250  0.1687E+01  0.1562E+02
  -3.240  0.1635E+01  0.1564E+02
  -3.230  0.1631E+01  0.1565E+02
  -3.220  0.1650E+01  0.1567E+02
  -3.210  0.1666E+01  0.1569E+02
  -3.200  0.1693E+01  0.1570E+02
  -3.190  0.1741E+01  0.1572E+02
  -3.180  0.1857E+01  0.1574E+02
  -3.170  0.1925E+01  0.1576E+02
  -3.160  0.1825E+01  0.1578E+02
  -3.150  0.1660E+01  0.1580E+02
  -3.140  0.1542E+01  0.1581E+02
  -3.130  0.1399E+01  0.1583E+02
  -3.120  0.1254E+01  0.1584E+02
  -3.110  0.1142E+01  0.1585E+02
  -3.100  0.1056E+01  0.1586E+02
  -3.090  0.1301E+01  0.1587E+02
  -3.080  0.1334E+01  0.1589E+02
  -3.070  0.2534E+01  0.1590E+02
  -3.060  0.2597E+01  0.1593E+02
  -3.050  0.2484E+01  0.1595E+02
  -3.040  0.2426E+01  0.1598E+02
  -3.030  0.2513E+01  0.1600E+02
  -3.020  0.2639E+01  0.1603E+02
  -3.010  0.2934E+01  0.1606E+02
  -3.000  0.3272E+01  0.1609E+02
  -2.990  0.3449E+01  0.1612E+02
  -2.980  0.3698E+01  0.1616E+02
  -2.970  0.3886E+01  0.1620E+02
  -2.960  0.3687E+01  0.1623E+02
  -2.950  0.3616E+01  0.1627E+02
  -2.940  0.3635E+01  0.1631E+02
  -2.930  0.3736E+01  0.1634E+02
  -2.920  0.3915E+01  0.1638E+02
  -2.910  0.3983E+01  0.1642E+02
  -2.900  0.4111E+01  0.1646E+02
  -2.890  0.4288E+01  0.1650E+02
  -2.880  0.4542E+01  0.1655E+02
  -2.870  0.4782E+01  0.1659E+02
  -2.860  0.5102E+01  0.1664E+02
  -2.850  0.5575E+01  0.1670E+02
  -2.840  0.6298E+01  0.1676E+02
  -2.830  0.8131E+01  0.1683E+02
  -2.820  0.6896E+01  0.1691E+02
  -2.810  0.6206E+01  0.1697E+02
  -2.800  0.5529E+01  0.1703E+02
  -2.790  0.5274E+01  0.1708E+02
  -2.780  0.5131E+01  0.1713E+02
  -2.770  0.4789E+01  0.1718E+02
  -2.760  0.4796E+01  0.1723E+02
  -2.750  0.4671E+01  0.1728E+02
  -2.740  0.4704E+01  0.1733E+02
  -2.730  0.4508E+01  0.1737E+02
  -2.720  0.4642E+01  0.1742E+02
  -2.710  0.4419E+01  0.1746E+02
  -2.700  0.4690E+01  0.1751E+02
  -2.690  0.4748E+01  0.1755E+02
  -2.680  0.5002E+01  0.1761E+02
  -2.670  0.5933E+01  0.1766E+02
  -2.660  0.2768E+01  0.1770E+02
  -2.650  0.2109E+01  0.1772E+02
  -2.640  0.1955E+01  0.1774E+02
  -2.630  0.1613E+01  0.1776E+02
  -2.620  0.6672E+00  0.1778E+02
  -2.610  0.5052E+00  0.1778E+02
  -2.600  0.5087E+00  0.1779E+02
  -2.590  0.5172E+00  0.1779E+02
  -2.580  0.5122E+00  0.1780E+02
  -2.570  0.5328E+00  0.1780E+02
  -2.560  0.5235E+00  0.1781E+02
  -2.550  0.5135E+00  0.1781E+02
  -2.540  0.5035E+00  0.1782E+02
  -2.530  0.4935E+00  0.1782E+02
  -2.520  0.4848E+00  0.1783E+02
  -2.510  0.4871E+00  0.1783E+02
  -2.500  0.4899E+00  0.1784E+02
  -2.490  0.4927E+00  0.1784E+02
  -2.480  0.4891E+00  0.1785E+02
  -2.470  0.5006E+00  0.1785E+02
  -2.460  0.4918E+00  0.1786E+02
  -2.450  0.4830E+00  0.1786E+02
  -2.440  0.4742E+00  0.1787E+02
  -2.430  0.4696E+00  0.1787E+02
  -2.420  0.4743E+00  0.1788E+02
  -2.410  0.4800E+00  0.1788E+02
  -2.400  0.4708E+00  0.1789E+02
  -2.390  0.4926E+00  0.1789E+02
  -2.380  0.4918E+00  0.1790E+02
  -2.370  0.4776E+00  0.1790E+02
  -2.360  0.4633E+00  0.1790E+02
  -2.350  0.4539E+00  0.1791E+02
  -2.340  0.4560E+00  0.1791E+02
  -2.330  0.4596E+00  0.1792E+02
  -2.320  0.4496E+00  0.1792E+02
  -2.310  0.4748E+00  0.1793E+02
  -2.300  0.4570E+00  0.1793E+02
  -2.290  0.4449E+00  0.1794E+02
  -2.280  0.4468E+00  0.1794E+02
  -2.270  0.4646E+00  0.1795E+02
  -2.260  0.4623E+00  0.1795E+02
  -2.250  0.4808E+00  0.1796E+02
  -2.240  0.4535E+00  0.1796E+02
  -2.230  0.4267E+00  0.1796E+02
  -2.220  0.4215E+00  0.1797E+02
  -2.210  0.4458E+00  0.1797E+02
  -2.200  0.4524E+00  0.1798E+02
  -2.190  0.4069E+00  0.1798E+02
  -2.180  0.4626E+00  0.1799E+02
  -2.170  0.4777E+00  0.1799E+02
  -2.160  0.3031E+00  0.1799E+02
  -2.150  0.3006E+00  0.1800E+02
  -2.140  0.7958E-01  0.1800E+02
  -2.130  0.0000E+00  0.1800E+02
  -2.120  0.0000E+00  0.1800E+02
  -2.110  0.0000E+00  0.1800E+02
  -2.100  0.0000E+00  0.1800E+02
  -2.090  0.0000E+00  0.1800E+02
  -2.080  0.0000E+00  0.1800E+02
  -2.070  0.0000E+00  0.1800E+02
  -2.060  0.0000E+00  0.1800E+02
  -2.050  0.0000E+00  0.1800E+02
  -2.040  0.0000E+00  0.1800E+02
  -2.030  0.0000E+00  0.1800E+02
  -2.020  0.0000E+00  0.1800E+02
  -2.010  0.0000E+00  0.1800E+02
  -2.000  0.0000E+00  0.1800E+02
  -1.990  0.0000E+00  0.1800E+02
  -1.980  0.0000E+00  0.1800E+02
  -1.970  0.0000E+00  0.1800E+02
  -1.960  0.0000E+00  0.1800E+02
  -1.950  0.0000E+00  0.1800E+02
  -1.940  0.0000E+00  0.1800E+02
  -1.930  0.0000E+00  0.1800E+02
  -1.920  0.0000E+00  0.1800E+02
  -1.910  0.0000E+00  0.1800E+02
  -1.900  0.0000E+00  0.1800E+02
  -1.890  0.0000E+00  0.1800E+02
  -1.880  0.0000E+00  0.1800E+02
  -1.870  0.0000E+00  0.1800E+02
  -1.860  0.0000E+00  0.1800E+02
  -1.850  0.0000E+00  0.1800E+02
  -1.840  0.0000E+00  0.1800E+02
  -1.830  0.0000E+00  0.1800E+02
  -1.820  0.0000E+00  0.1800E+02
  -1.810  0.0000E+00  0.1800E+02
  -1.800  0.0000E+00  0.1800E+02
  -1.790  0.0000E+00  0.1800E+02
  -1.780  0.0000E+00  0.1800E+02
  -1.770  0.0000E+00  0.1800E+02
  -1.760  0.0000E+00  0.1800E+02
  -1.750  0.0000E+00  0.1800E+02
  -1.740  0.0000E+00  0.1800E+02
  -1.730  0.0000E+00  0.1800E+02
  -1.720  0.0000E+00  0.1800E+02
  -1.710  0.0000E+00  0.1800E+02
  -1.700  0.0000E+00  0.1800E+02
  -1.690  0.0000E+00  0.1800E+02
  -1.680  0.0000E+00  0.1800E+02
  -1.670  0.0000E+00  0.1800E+02
  -1.660  0.0000E+00  0.1800E+02
  -1.650  0.0000E+00  0.1800E+02
  -1.640  0.0000E+00  0.1800E+02
  -1.630  0.0000E+00  0.1800E+02
  -1.620  0.0000E+00  0.1800E+02
  -1.610  0.0000E+00  0.1800E+02
  -1.600  0.0000E+00  0.1800E+02
  -1.590  0.0000E+00  0.1800E+02
  -1.580  0.0000E+00  0.1800E+02
  -1.570  0.0000E+00  0.1800E+02
  -1.560  0.0000E+00  0.1800E+02
  -1.550  0.0000E+00  0.1800E+02
  -1.540  0.0000E+00  0.1800E+02
  -1.530  0.0000E+00  0.1800E+02
  -1.520  0.0000E+00  0.1800E+02
  -1.510  0.0000E+00  0.1800E+02
  -1.500  0.0000E+00  0.1800E+02
  -1.490  0.0000E+00  0.1800E+02
  -1.480  0.0000E+00  0.1800E+02
  -1.470  0.0000E+00  0.1800E+02
  -1.460  0.0000E+00  0.1800E+02
  -1.450  0.0000E+00  0.1800E+02
  -1.440  0.0000E+00  0.1800E+02
  -1.430  0.0000E+00  0.1800E+02
  -1.420  0.0000E+00  0.1800E+02
  -1.410  0.0000E+00  0.1800E+02
  -1.400  0.0000E+00  0.1800E+02
  -1.390  0.0000E+00  0.1800E+02
  -1.380  0.0000E+00  0.1800E+02
  -1.370  0.0000E+00  0.1800E+02
  -1.360  0.0000E+00  0.1800E+02
  -1.350  0.0000E+00  0.1800E+02
  -1.340  0.0000E+00  0.1800E+02
  -1.330  0.0000E+00  0.1800E+02
  -1.320  0.0000E+00  0.1800E+02
  -1.310  0.0000E+00  0.1800E+02
  -1.300  0.0000E+00  0.1800E+02
  -1.290  0.0000E+00  0.1800E+02
  -1.280  0.0000E+00  0.1800E+02
  -1.270  0.0000E+00  0.1800E+02
  -1.260  0.0000E+00  0.1800E+02
  -1.250  0.0000E+00  0.1800E+02
  -1.240  0.0000E+00  0.1800E+02
  -1.230  0.0000E+00  0.1800E+02
  -1.220  0.0000E+00  0.1800E+02
  -1.210  0.0000E+00  0.1800E+02
  -1.200  0.0000E+00  0.1800E+02
  -1.190  0.0000E+00  0.1800E+02
  -1.180  0.0000E+00  0.1800E+02
  -1.170  0.0000E+00  0.1800E+02
  -1.160  0.0000E+00  0.1800E+02
  -1.150  0.0000E+00  0.1800E+02
  -1.140  0.0000E+00  0.1800E+02
  -1.130  0.0000E+00  0.1800E+02
  -1.120  0.0000E+00  0.1800E+02
  -1.110  0.0000E+00  0.1800E+02
  -1.100  0.0000E+00  0.1800E+02
  -1.090  0.0000E+00  0.1800E+02
  -1.080  0.0000E+00  0.1800E+02
  -1.070  0.0000E+00  0.1800E+02
  -1.060  0.0000E+00  0.1800E+02
  -1.050  0.0000E+00  0.1800E+02
  -1.040  0.0000E+00  0.1800E+02
  -1.030  0.0000E+00  0.1800E+02
  -1.020  0.0000E+00  0.1800E+02
  -1.010  0.0000E+00  0.1800E+02
  -1.000  0.0000E+00  0.1800E+02
  -0.990  0.0000E+00  0.1800E+02
  -0.980  0.0000E+00  0.1800E+02
  -0.970  0.0000E+00  0.1800E+02
  -0.960  0.0000E+00  0.1800E+02
  -0.950  0.0000E+00  0.1800E+02
  -0.940  0.0000E+00  0.1800E+02
  -0.930  0.0000E+00  0.1800E+02
  -0.920  0.0000E+00  0.1800E+02
  -0.910  0.0000E+00  0.1800E+02
  -0.900  0.0000E+00  0.1800E+02
  -0.890  0.0000E+00  0.1800E+02
  -0.880  0.0000E+00  0.1800E+02
  -0.870  0.0000E+00  0.1800E+02
  -0.860  0.0000E+00  0.1800E+02
  -0.850  0.0000E+00  0.1800E+02
  -0.840  0.0000E+00  0.1800E+02
  -0.830  0.0000E+00  0.1800E+02
  -0.820  0.0000E+00  0.1800E+02
  -0.810  0.0000E+00  0.1800E+02
  -0.800  0.0000E+00  0.1800E+02
  -0.790  0.0000E+00  0.1800E+02
  -0.780  0.0000E+00  0.1800E+02
  -0.770  0.0000E+00  0.1800E+02
  -0.760  0.0000E+00  0.1800E+02
  -0.750  0.0000E+00  0.1800E+02
  -0.740  0.0000E+00  0.1800E+02
  -0.730  0.0000E+00  0.1800E+02
  -0.720  0.0000E+00  0.1800E+02
  -0.710  0.0000E+00  0.1800E+02
  -0.700  0.0000E+00  0.1800E+02
  -0.690  0.0000E+00  0.1800E+02
  -0.680  0.0000E+00  0.1800E+02
  -0.670  0.0000E+00  0.1800E+02
  -0.660  0.0000E+00  0.1800E+02
  -0.650  0.0000E+00  0.1800E+02
  -0.640  0.0000E+00  0.1800E+02
  -0.630  0.1191E+00  0.1800E+02
  -0.620  0.1627E+00  0.1800E+02
  -0.610  0.1862E+00  0.1800E+02
  -0.600  0.2098E+00  0.1801E+02
  -0.590  0.2563E+00  0.1801E+02
  -0.580  0.1894E+00  0.1801E+02
  -0.570  0.1953E+00  0.1801E+02
  -0.560  0.2089E+00  0.1802E+02
  -0.550  0.2226E+00  0.1802E+02
  -0.540  0.4647E+00  0.1802E+02
  -0.530  0.1816E+01  0.1803E+02
  -0.520  0.8738E+00  0.1804E+02
  -0.510  0.9695E+00  0.1805E+02
  -0.500  0.1057E+01  0.1806E+02
  -0.490  0.9036E+00  0.1807E+02
  -0.480  0.9662E+00  0.1808E+02
  -0.470  0.1038E+01  0.1809E+02
  -0.460  0.1040E+01  0.1810E+02
  -0.450  0.1040E+01  0.1811E+02
  -0.440  0.9856E+00  0.1812E+02
  -0.430  0.1013E+01  0.1813E+02
  -0.420  0.1036E+01  0.1814E+02
  -0.410  0.1010E+01  0.1815E+02
  -0.400  0.1050E+01  0.1816E+02
  -0.390  0.1313E+01  0.1817E+02
  -0.380  0.1482E+01  0.1819E+02
  -0.370  0.1505E+01  0.1820E+02
  -0.360  0.1532E+01  0.1822E+02
  -0.350  0.1631E+01  0.1823E+02
  -0.340  0.1529E+01  0.1825E+02
  -0.330  0.1616E+01  0.1826E+02
  -0.320  0.1702E+01  0.1828E+02
  -0.310  0.1673E+01  0.1830E+02
  -0.300  0.1770E+01  0.1831E+02
  -0.290  0.1878E+01  0.1833E+02
  -0.280  0.1928E+01  0.1835E+02
  -0.270  0.1993E+01  0.1837E+02
  -0.260  0.2023E+01  0.1839E+02
  -0.250  0.2261E+01  0.1841E+02
  -0.240  0.2600E+01  0.1844E+02
  -0.230  0.3500E+01  0.1846E+02
  -0.220  0.2441E+01  0.1849E+02
  -0.210  0.2189E+01  0.1851E+02
  -0.200  0.2035E+01  0.1854E+02
  -0.190  0.1844E+01  0.1855E+02
  -0.180  0.1795E+01  0.1857E+02
  -0.170  0.1673E+01  0.1859E+02
  -0.160  0.1600E+01  0.1861E+02
  -0.150  0.1546E+01  0.1862E+02
  -0.140  0.1523E+01  0.1864E+02
  -0.130  0.1491E+01  0.1865E+02
  -0.120  0.1458E+01  0.1867E+02
  -0.110  0.1398E+01  0.1868E+02
  -0.100  0.1381E+01  0.1870E+02
  -0.090  0.1358E+01  0.1871E+02
  -0.080  0.1331E+01  0.1872E+02
  -0.070  0.1302E+01  0.1874E+02
  -0.060  0.1282E+01  0.1875E+02
  -0.050  0.1254E+01  0.1876E+02
  -0.040  0.1238E+01  0.1877E+02
  -0.030  0.1223E+01  0.1879E+02
  -0.020  0.1209E+01  0.1880E+02
  -0.010  0.1196E+01  0.1881E+02
   0.000  0.1182E+01  0.1882E+02
   0.010  0.1143E+01  0.1883E+02
   0.020  0.1136E+01  0.1885E+02
   0.030  0.1130E+01  0.1886E+02
   0.040  0.1122E+01  0.1887E+02
   0.050  0.1113E+01  0.1888E+02
   0.060  0.1099E+01  0.1889E+02
   0.070  0.1085E+01  0.1890E+02
   0.080  0.1070E+01  0.1891E+02
   0.090  0.1057E+01  0.1892E+02
   0.100  0.1054E+01  0.1893E+02
   0.110  0.1048E+01  0.1894E+02
   0.120  0.1042E+01  0.1895E+02
   0.130  0.1039E+01  0.1896E+02
   0.140  0.1033E+01  0.1897E+02
   0.150  0.1023E+01  0.1898E+02
   0.160  0.1002E+01  0.1899E+02
   0.170  0.9927E+00  0.1900E+02
   0.180  0.9906E+00  0.1901E+02
   0.190  0.9902E+00  0.1902E+02
   0.200  0.9852E+00  0.1903E+02
   0.210  0.9797E+00  0.1904E+02
   0.220  0.9739E+00  0.1905E+02
   0.230  0.9668E+00  0.1906E+02
   0.240  0.9596E+00  0.1907E+02
   0.250  0.9524E+00  0.1908E+02
   0.260  0.9454E+00  0.1909E+02
   0.270  0.9482E+00  0.1910E+02
   0.280  0.9467E+00  0.1911E+02
   0.290  0.9452E+00  0.1912E+02
   0.300  0.9436E+00  0.1913E+02
   0.310  0.9358E+00  0.1914E+02
   0.320  0.9311E+00  0.1915E+02
   0.330  0.9259E+00  0.1916E+02
   0.340  0.9203E+00  0.1917E+02
   0.350  0.9152E+00  0.1918E+02
   0.360  0.9157E+00  0.1919E+02
   0.370  0.9147E+00  0.1920E+02
   0.380  0.9133E+00  0.1920E+02
   0.390  0.9111E+00  0.1921E+02
   0.400  0.9088E+00  0.1922E+02
   0.410  0.9066E+00  0.1923E+02
   0.420  0.9044E+00  0.1924E+02
   0.430  0.8997E+00  0.1925E+02
   0.440  0.9001E+00  0.1926E+02
   0.450  0.8981E+00  0.1927E+02
   0.460  0.8981E+00  0.1928E+02
   0.470  0.8980E+00  0.1929E+02
   0.480  0.8978E+00  0.1929E+02
   0.490  0.8977E+00  0.1930E+02
   0.500  0.8972E+00  0.1931E+02
   0.510  0.8966E+00  0.1932E+02
   0.520  0.9028E+00  0.1933E+02
   0.530  0.9008E+00  0.1934E+02
   0.540  0.8986E+00  0.1935E+02
   0.550  0.8959E+00  0.1936E+02
   0.560  0.8920E+00  0.1937E+02
   0.570  0.8963E+00  0.1938E+02
   0.580  0.8977E+00  0.1938E+02
   0.590  0.8991E+00  0.1939E+02
   0.600  0.9005E+00  0.1940E+02
   0.610  0.9100E+00  0.1941E+02
   0.620  0.9133E+00  0.1942E+02
   0.630  0.9166E+00  0.1943E+02
   0.640  0.9170E+00  0.1944E+02
   0.650  0.9176E+00  0.1945E+02
   0.660  0.9162E+00  0.1946E+02
   0.670  0.9164E+00  0.1947E+02
   0.680  0.9286E+00  0.1948E+02
   0.690  0.9407E+00  0.1948E+02
   0.700  0.9528E+00  0.1949E+02
   0.710  0.9632E+00  0.1950E+02
   0.720  0.9673E+00  0.1951E+02
   0.730  0.9712E+00  0.1952E+02
   0.740  0.9751E+00  0.1953E+02
   0.750  0.9790E+00  0.1954E+02
   0.760  0.1016E+01  0.1955E+02
   0.770  0.1030E+01  0.1956E+02
   0.780  0.1044E+01  0.1957E+02
   0.790  0.1059E+01  0.1958E+02
   0.800  0.1074E+01  0.1959E+02
   0.810  0.1109E+01  0.1961E+02
   0.820  0.1166E+01  0.1962E+02
   0.830  0.1238E+01  0.1963E+02
   0.840  0.1320E+01  0.1964E+02
   0.850  0.1459E+01  0.1966E+02
   0.860  0.1782E+01  0.1967E+02
   0.870  0.1215E+01  0.1969E+02
   0.880  0.1159E+01  0.1970E+02
   0.890  0.1107E+01  0.1971E+02
   0.900  0.1039E+01  0.1972E+02
   0.910  0.9831E+00  0.1973E+02
   0.920  0.9357E+00  0.1974E+02
   0.930  0.8883E+00  0.1975E+02
   0.940  0.8461E+00  0.1976E+02
   0.950  0.9099E+00  0.1977E+02
   0.960  0.8167E+00  0.1978E+02
   0.970  0.7980E+00  0.1978E+02
   0.980  0.7726E+00  0.1979E+02
   0.990  0.7372E+00  0.1980E+02
   1.000  0.7416E+00  0.1981E+02
   1.010  0.7574E+00  0.1982E+02
   1.020  0.7200E+00  0.1982E+02
   1.030  0.6826E+00  0.1983E+02
   1.040  0.6481E+00  0.1984E+02
   1.050  0.6310E+00  0.1984E+02
   1.060  0.6139E+00  0.1985E+02
   1.070  0.5968E+00  0.1985E+02
   1.080  0.5798E+00  0.1986E+02
   1.090  0.5627E+00  0.1987E+02
   1.100  0.5588E+00  0.1987E+02
   1.110  0.5693E+00  0.1988E+02
   1.120  0.5798E+00  0.1988E+02
   1.130  0.5321E+00  0.1989E+02
   1.140  0.4958E+00  0.1989E+02
   1.150  0.4868E+00  0.1990E+02
   1.160  0.4777E+00  0.1990E+02
   1.170  0.4632E+00  0.1991E+02
   1.180  0.4487E+00  0.1991E+02
   1.190  0.4628E+00  0.1992E+02
   1.200  0.4841E+00  0.1992E+02
   1.210  0.4558E+00  0.1993E+02
   1.220  0.4274E+00  0.1993E+02
   1.230  0.3987E+00  0.1994E+02
   1.240  0.3818E+00  0.1994E+02
   1.250  0.3667E+00  0.1994E+02
   1.260  0.3515E+00  0.1995E+02
   1.270  0.3364E+00  0.1995E+02
   1.280  0.3424E+00  0.1995E+02
   1.290  0.3271E+00  0.1996E+02
   1.300  0.3240E+00  0.1996E+02
   1.310  0.3473E+00  0.1996E+02
   1.320  0.3664E+00  0.1997E+02
   1.330  0.3350E+00  0.1997E+02
   1.340  0.3052E+00  0.1997E+02
   1.350  0.2889E+00  0.1998E+02
   1.360  0.2688E+00  0.1998E+02
   1.370  0.2488E+00  0.1998E+02
   1.380  0.2365E+00  0.1998E+02
   1.390  0.2301E+00  0.1999E+02
   1.400  0.2237E+00  0.1999E+02
   1.410  0.2173E+00  0.1999E+02
   1.420  0.2109E+00  0.1999E+02
   1.430  0.2045E+00  0.2000E+02
   1.440  0.1981E+00  0.2000E+02
   1.450  0.9566E-01  0.2000E+02
   1.460  0.4523E-01  0.2000E+02
   1.470  0.1203E-02  0.2000E+02
   1.480  0.0000E+00  0.2000E+02
   1.490  0.0000E+00  0.2000E+02
   1.500  0.0000E+00  0.2000E+02
   1.510  0.0000E+00  0.2000E+02
   1.520  0.0000E+00  0.2000E+02
   1.530  0.0000E+00  0.2000E+02
   1.540  0.0000E+00  0.2000E+02
   1.550  0.0000E+00  0.2000E+02
   1.560  0.0000E+00  0.2000E+02
   1.570  0.0000E+00  0.2000E+02
   1.580  0.0000E+00  0.2000E+02
   1.590  0.0000E+00  0.2000E+02
   1.600  0.0000E+00  0.2000E+02
   1.610  0.0000E+00  0.2000E+02
   1.620  0.0000E+00  0.2000E+02
   1.630  0.0000E+00  0.2000E+02
   1.640  0.0000E+00  0.2000E+02
   1.650  0.0000E+00  0.2000E+02
   1.660  0.0000E+00  0.2000E+02
   1.670  0.0000E+00  0.2000E+02
   1.680  0.0000E+00  0.2000E+02
   1.690  0.0000E+00  0.2000E+02
   1.700  0.0000E+00  0.2000E+02
   1.710  0.0000E+00  0.2000E+02
   1.720  0.0000E+00  0.2000E+02
   1.730  0.0000E+00  0.2000E+02
   1.740  0.0000E+00  0.2000E+02
   1.750  0.2276E-01  0.2000E+02
   1.760  0.5373E-01  0.2000E+02
   1.770  0.8471E-01  0.2000E+02
   1.780  0.1157E+00  0.2000E+02
   1.790  0.5531E+00  0.2000E+02
   1.800  0.8752E+00  0.2001E+02
   1.810  0.9961E+00  0.2002E+02
   1.820  0.1299E+01  0.2003E+02
   1.830  0.1628E+01  0.2005E+02
   1.840  0.1336E+01  0.2006E+02
   1.850  0.1324E+01  0.2008E+02
   1.860  0.1460E+01  0.2009E+02
   1.870  0.1996E+01  0.2011E+02
   1.880  0.2353E+01  0.2013E+02
   1.890  0.2915E+01  0.2016E+02
   1.900  0.2874E+01  0.2018E+02
   1.910  0.3359E+01  0.2022E+02
   1.920  0.3524E+01  0.2025E+02
   1.930  0.3337E+01  0.2028E+02
   1.940  0.3418E+01  0.2032E+02
   1.950  0.3786E+01  0.2035E+02
   1.960  0.3188E+01  0.2039E+02
   1.970  0.2742E+01  0.2042E+02
   1.980  0.2614E+01  0.2045E+02
   1.990  0.2548E+01  0.2047E+02
   2.000  0.2466E+01  0.2050E+02
   2.010  0.2358E+01  0.2052E+02
   2.020  0.2319E+01  0.2054E+02
   2.030  0.2279E+01  0.2057E+02
   2.040  0.2282E+01  0.2059E+02
   2.050  0.2295E+01  0.2061E+02
   2.060  0.2325E+01  0.2064E+02
   2.070  0.2709E+01  0.2066E+02
   2.080  0.3053E+01  0.2069E+02
   2.090  0.3054E+01  0.2072E+02
   2.100  0.3475E+01  0.2075E+02
   2.110  0.4864E+01  0.2080E+02
   2.120  0.4169E+01  0.2085E+02
   2.130  0.3378E+01  0.2089E+02
   2.140  0.3147E+01  0.2092E+02
   2.150  0.2928E+01  0.2095E+02
   2.160  0.2788E+01  0.2098E+02
   2.170  0.2715E+01  0.2100E+02
   2.180  0.2678E+01  0.2103E+02
   2.190  0.2553E+01  0.2106E+02
   2.200  0.2499E+01  0.2108E+02
   2.210  0.2431E+01  0.2111E+02
   2.220  0.2578E+01  0.2113E+02
   2.230  0.2700E+01  0.2116E+02
   2.240  0.2772E+01  0.2119E+02
   2.250  0.2633E+01  0.2121E+02
   2.260  0.2798E+01  0.2124E+02
   2.270  0.2825E+01  0.2127E+02
   2.280  0.2661E+01  0.2130E+02
   2.290  0.2643E+01  0.2132E+02
   2.300  0.2638E+01  0.2135E+02
   2.310  0.2571E+01  0.2138E+02
   2.320  0.2552E+01  0.2140E+02
   2.330  0.2788E+01  0.2143E+02
   2.340  0.2662E+01  0.2146E+02
   2.350  0.2630E+01  0.2148E+02
   2.360  0.2619E+01  0.2151E+02
   2.370  0.2565E+01  0.2154E+02
   2.380  0.2376E+01  0.2156E+02
   2.390  0.2334E+01  0.2159E+02
   2.400  0.2095E+01  0.2161E+02
   2.410  0.1915E+01  0.2163E+02
   2.420  0.1881E+01  0.2165E+02
   2.430  0.1815E+01  0.2167E+02
   2.440  0.1784E+01  0.2168E+02
   2.450  0.1383E+01  0.2170E+02
   2.460  0.1202E+01  0.2171E+02
   2.470  0.9974E+00  0.2172E+02
   2.480  0.8286E+00  0.2173E+02
   2.490  0.8322E+00  0.2174E+02
   2.500  0.8470E+00  0.2175E+02
   2.510  0.8600E+00  0.2176E+02
   2.520  0.8729E+00  0.2177E+02
   2.530  0.8859E+00  0.2177E+02
   2.540  0.8863E+00  0.2178E+02
   2.550  0.9129E+00  0.2179E+02
   2.560  0.1238E+01  0.2180E+02
   2.570  0.1710E+01  0.2182E+02
   2.580  0.1508E+01  0.2183E+02
   2.590  0.1906E+01  0.2185E+02
   2.600  0.1622E+01  0.2187E+02
   2.610  0.1711E+01  0.2188E+02
   2.620  0.1844E+01  0.2190E+02
   2.630  0.1946E+01  0.2192E+02
   2.640  0.2177E+01  0.2194E+02
   2.650  0.2060E+01  0.2196E+02
   2.660  0.1881E+01  0.2198E+02
   2.670  0.1811E+01  0.2200E+02
   2.680  0.1857E+01  0.2202E+02
   2.690  0.1815E+01  0.2204E+02
   2.700  0.1527E+01  0.2205E+02
   2.710  0.1464E+01  0.2207E+02
   2.720  0.1426E+01  0.2208E+02
   2.730  0.1386E+01  0.2210E+02
   2.740  0.1347E+01  0.2211E+02
   2.750  0.1612E+01  0.2213E+02
   2.760  0.1148E+01  0.2214E+02
   2.770  0.9899E+00  0.2215E+02
   2.780  0.8815E+00  0.2216E+02
   2.790  0.9256E+00  0.2217E+02
   2.800  0.1096E+01  0.2218E+02
   2.810  0.1278E+01  0.2219E+02
   2.820  0.1516E+01  0.2220E+02
   2.830  0.1902E+01  0.2222E+02
   2.840  0.1765E+01  0.2224E+02
   2.850  0.1752E+01  0.2225E+02
   2.860  0.1883E+01  0.2227E+02
   2.870  0.2062E+01  0.2229E+02
   2.880  0.2055E+01  0.2231E+02
   2.890  0.2180E+01  0.2233E+02
   2.900  0.2323E+01  0.2236E+02
   2.910  0.2411E+01  0.2238E+02
   2.920  0.2677E+01  0.2241E+02
   2.930  0.2738E+01  0.2243E+02
   2.940  0.2905E+01  0.2246E+02
   2.950  0.3112E+01  0.2249E+02
   2.960  0.3525E+01  0.2252E+02
   2.970  0.4536E+01  0.2256E+02
   2.980  0.5465E+01  0.2261E+02
   2.990  0.6648E+01  0.2267E+02
   3.000  0.7858E+01  0.2275E+02
   3.010  0.8615E+01  0.2283E+02
   3.020  0.8789E+01  0.2292E+02
   3.030  0.7623E+01  0.2301E+02
   3.040  0.9685E+01  0.2309E+02
   3.050  0.1217E+02  0.2321E+02
   3.060  0.6500E+01  0.2329E+02
   3.070  0.5969E+01  0.2336E+02
   3.080  0.5683E+01  0.2341E+02
   3.090  0.5981E+01  0.2347E+02
   3.100  0.6096E+01  0.2353E+02
   3.110  0.6095E+01  0.2359E+02
   3.120  0.6676E+01  0.2366E+02
   3.130  0.6327E+01  0.2373E+02
   3.140  0.6045E+01  0.2379E+02
   3.150  0.5528E+01  0.2385E+02
   3.160  0.5412E+01  0.2391E+02
   3.170  0.5365E+01  0.2396E+02
   3.180  0.5699E+01  0.2402E+02
   3.190  0.4706E+01  0.2407E+02
   3.200  0.3291E+01  0.2411E+02
   3.210  0.2920E+01  0.2414E+02
   3.220  0.3052E+01  0.2417E+02
   3.230  0.7571E+01  0.2421E+02
   3.240  0.6680E+01  0.2428E+02
   3.250  0.5792E+01  0.2434E+02
   3.260  0.5464E+01  0.2440E+02
   3.270  0.5828E+01  0.2445E+02
   3.280  0.5568E+01  0.2451E+02
   3.290  0.5081E+01  0.2456E+02
   3.300  0.4739E+01  0.2461E+02
   3.310  0.4069E+01  0.2466E+02
   3.320  0.3453E+01  0.2469E+02
   3.330  0.3310E+01  0.2473E+02
   3.340  0.3269E+01  0.2476E+02
   3.350  0.3232E+01  0.2479E+02
   3.360  0.3254E+01  0.2482E+02
   3.370  0.3292E+01  0.2486E+02
   3.380  0.3292E+01  0.2489E+02
   3.390  0.3278E+01  0.2492E+02
   3.400  0.3344E+01  0.2496E+02
   3.410  0.3099E+01  0.2499E+02
   3.420  0.2978E+01  0.2502E+02
   3.430  0.2921E+01  0.2505E+02
   3.440  0.2905E+01  0.2508E+02
   3.450  0.2890E+01  0.2511E+02
   3.460  0.2928E+01  0.2514E+02
   3.470  0.3271E+01  0.2517E+02
   3.480  0.3029E+01  0.2520E+02
   3.490  0.3084E+01  0.2523E+02
   3.500  0.3076E+01  0.2526E+02
   3.510  0.3218E+01  0.2529E+02
   3.520  0.3438E+01  0.2532E+02
   3.530  0.3401E+01  0.2536E+02
   3.540  0.3123E+01  0.2539E+02
   3.550  0.3001E+01  0.2542E+02
   3.560  0.3014E+01  0.2545E+02
   3.570  0.2670E+01  0.2548E+02
   3.580  0.2505E+01  0.2551E+02
   3.590  0.2400E+01  0.2553E+02
   3.600  0.2244E+01  0.2556E+02
   3.610  0.2193E+01  0.2558E+02
   3.620  0.2141E+01  0.2560E+02
   3.630  0.1432E+01  0.2562E+02
   3.640  0.1440E+01  0.2563E+02
   3.650  0.1418E+01  0.2565E+02
   3.660  0.1414E+01  0.2566E+02
   3.670  0.1392E+01  0.2568E+02
   3.680  0.1383E+01  0.2569E+02
   3.690  0.1344E+01  0.2570E+02
   3.700  0.1320E+01  0.2572E+02
   3.710  0.1318E+01  0.2573E+02
   3.720  0.1319E+01  0.2574E+02
   3.730  0.1319E+01  0.2576E+02
   3.740  0.1324E+01  0.2577E+02
   3.750  0.1337E+01  0.2578E+02
   3.760  0.1396E+01  0.2580E+02
   3.770  0.1963E+01  0.2581E+02
   3.780  0.2394E+01  0.2583E+02
   3.790  0.3527E+01  0.2586E+02
   3.800  0.3931E+01  0.2590E+02
   3.810  0.4204E+01  0.2594E+02
   3.820  0.3772E+01  0.2598E+02
   3.830  0.3656E+01  0.2602E+02
   3.840  0.3585E+01  0.2606E+02
   3.850  0.3735E+01  0.2609E+02
   3.860  0.3470E+01  0.2613E+02
   3.870  0.3260E+01  0.2616E+02
   3.880  0.3192E+01  0.2620E+02
   3.890  0.3176E+01  0.2623E+02
   3.900  0.3357E+01  0.2626E+02
   3.910  0.3669E+01  0.2630E+02
   3.920  0.3699E+01  0.2633E+02
   3.930  0.3616E+01  0.2637E+02
   3.940  0.3805E+01  0.2641E+02
   3.950  0.3937E+01  0.2645E+02
   3.960  0.4061E+01  0.2649E+02
   3.970  0.4082E+01  0.2653E+02
   3.980  0.3972E+01  0.2657E+02
   3.990  0.4193E+01  0.2661E+02
   4.000  0.4415E+01  0.2665E+02
   4.010  0.4492E+01  0.2670E+02
   4.020  0.4517E+01  0.2674E+02
   4.030  0.4614E+01  0.2679E+02
   4.040  0.5015E+01  0.2683E+02
   4.050  0.5617E+01  0.2689E+02
   4.060  0.4594E+01  0.2694E+02
   4.070  0.3412E+01  0.2698E+02
   4.080  0.2903E+01  0.2701E+02
   4.090  0.2227E+01  0.2704E+02
   4.100  0.3000E+01  0.2707E+02
   4.110  0.3049E+01  0.2710E+02
   4.120  0.3770E+01  0.2714E+02
   4.130  0.4288E+01  0.2718E+02
   4.140  0.3703E+01  0.2722E+02
   4.150  0.3585E+01  0.2726E+02
   4.160  0.3467E+01  0.2729E+02
   4.170  0.3513E+01  0.2733E+02
   4.180  0.3636E+01  0.2736E+02
   4.190  0.3741E+01  0.2740E+02
   4.200  0.3748E+01  0.2744E+02
   4.210  0.3900E+01  0.2748E+02
   4.220  0.4086E+01  0.2752E+02
   4.230  0.4750E+01  0.2756E+02
   4.240  0.5421E+01  0.2761E+02
   4.250  0.5468E+01  0.2766E+02
   4.260  0.5562E+01  0.2772E+02
   4.270  0.5731E+01  0.2778E+02
   4.280  0.4957E+01  0.2783E+02
   4.290  0.4549E+01  0.2788E+02
   4.300  0.4476E+01  0.2792E+02
   4.310  0.4541E+01  0.2797E+02
   4.320  0.4991E+01  0.2802E+02
   4.330  0.5029E+01  0.2807E+02
   4.340  0.5140E+01  0.2812E+02
   4.350  0.6250E+01  0.2817E+02
   4.360  0.5833E+01  0.2823E+02
   4.370  0.5491E+01  0.2829E+02
   4.380  0.5310E+01  0.2834E+02
   4.390  0.3932E+01  0.2839E+02
   4.400  0.2219E+01  0.2842E+02
   4.410  0.2189E+01  0.2844E+02
   4.420  0.1914E+01  0.2846E+02
   4.430  0.2848E+01  0.2848E+02
   4.440  0.3914E+01  0.2852E+02
   4.450  0.4886E+01  0.2856E+02
   4.460  0.5165E+01  0.2862E+02
   4.470  0.4259E+01  0.2866E+02
   4.480  0.4066E+01  0.2870E+02
   4.490  0.3815E+01  0.2874E+02
   4.500  0.3628E+01  0.2878E+02
   4.510  0.3604E+01  0.2881E+02
   4.520  0.3659E+01  0.2885E+02
   4.530  0.2969E+01  0.2888E+02
   4.540  0.2809E+01  0.2891E+02
   4.550  0.2935E+01  0.2894E+02
   4.560  0.3031E+01  0.2897E+02
   4.570  0.2803E+01  0.2900E+02
   4.580  0.2728E+01  0.2903E+02
   4.590  0.2582E+01  0.2905E+02
   4.600  0.2603E+01  0.2908E+02
   4.610  0.2418E+01  0.2911E+02
   4.620  0.2194E+01  0.2913E+02
   4.630  0.2152E+01  0.2915E+02
   4.640  0.2035E+01  0.2917E+02
   4.650  0.1992E+01  0.2919E+02
   4.660  0.1878E+01  0.2921E+02
   4.670  0.3546E+01  0.2923E+02
   4.680  0.4290E+01  0.2928E+02
   4.690  0.4063E+01  0.2932E+02
   4.700  0.4046E+01  0.2936E+02
   4.710  0.4012E+01  0.2940E+02
   4.720  0.3761E+01  0.2944E+02
   4.730  0.4067E+01  0.2948E+02
   4.740  0.3930E+01  0.2952E+02
   4.750  0.3820E+01  0.2956E+02
   4.760  0.3999E+01  0.2960E+02
   4.770  0.3865E+01  0.2964E+02
   4.780  0.3864E+01  0.2968E+02
   4.790  0.3920E+01  0.2971E+02
   4.800  0.3979E+01  0.2975E+02
   4.810  0.4748E+01  0.2980E+02
   4.820  0.4351E+01  0.2984E+02
   4.830  0.3802E+01  0.2988E+02
   4.840  0.3713E+01  0.2992E+02
   4.850  0.3586E+01  0.2996E+02
   4.860  0.3571E+01  0.2999E+02
   4.870  0.3587E+01  0.3003E+02
   4.880  0.3755E+01  0.3006E+02
   4.890  0.3794E+01  0.3010E+02
   4.900  0.3877E+01  0.3014E+02
   4.910  0.3814E+01  0.3018E+02
   4.920  0.3853E+01  0.3022E+02
   4.930  0.4117E+01  0.3026E+02
   4.940  0.4216E+01  0.3030E+02
   4.950  0.4020E+01  0.3034E+02
   4.960  0.4293E+01  0.3039E+02
   4.970  0.4336E+01  0.3043E+02
   4.980  0.3776E+01  0.3047E+02
   4.990  0.3737E+01  0.3050E+02
   5.000  0.3657E+01  0.3054E+02
   5.010  0.4011E+01  0.3058E+02
   5.020  0.3675E+01  0.3062E+02
   5.030  0.3904E+01  0.3065E+02
   5.040  0.3821E+01  0.3069E+02
   5.050  0.3664E+01  0.3073E+02
   5.060  0.3596E+01  0.3077E+02
   5.070  0.3489E+01  0.3080E+02
   5.080  0.3536E+01  0.3084E+02
   5.090  0.3596E+01  0.3087E+02
   5.100  0.3468E+01  0.3091E+02
   5.110  0.3180E+01  0.3094E+02
   5.120  0.3225E+01  0.3097E+02
   5.130  0.3281E+01  0.3101E+02
   5.140  0.3321E+01  0.3104E+02
   5.150  0.3608E+01  0.3107E+02
   5.160  0.3530E+01  0.3111E+02
   5.170  0.3540E+01  0.3115E+02
   5.180  0.3564E+01  0.3118E+02
   5.190  0.3676E+01  0.3122E+02
   5.200  0.3659E+01  0.3125E+02
   5.210  0.3698E+01  0.3129E+02
   5.220  0.3903E+01  0.3133E+02
   5.230  0.4354E+01  0.3137E+02
   5.240  0.4032E+01  0.3141E+02
   5.250  0.3840E+01  0.3145E+02
   5.260  0.3834E+01  0.3149E+02
   5.270  0.3836E+01  0.3153E+02
   5.280  0.3588E+01  0.3156E+02
   5.290  0.3435E+01  0.3160E+02
   5.300  0.3282E+01  0.3163E+02
   5.310  0.3003E+01  0.3167E+02
   5.320  0.2900E+01  0.3169E+02
   5.330  0.2903E+01  0.3172E+02
   5.340  0.3015E+01  0.3175E+02
   5.350  0.3270E+01  0.3178E+02
   5.360  0.3495E+01  0.3182E+02
   5.370  0.3452E+01  0.3185E+02
   5.380  0.3678E+01  0.3189E+02
   5.390  0.3933E+01  0.3193E+02
   5.400  0.4256E+01  0.3197E+02
   5.410  0.4675E+01  0.3201E+02
   5.420  0.5026E+01  0.3206E+02
   5.430  0.4308E+01  0.3211E+02
   5.440  0.4513E+01  0.3215E+02
   5.450  0.4013E+01  0.3219E+02
   5.460  0.3843E+01  0.3223E+02
   5.470  0.2891E+01  0.3226E+02
   5.480  0.2831E+01  0.3229E+02
   5.490  0.2931E+01  0.3232E+02
   5.500  0.3003E+01  0.3235E+02
   5.510  0.3181E+01  0.3238E+02
   5.520  0.3481E+01  0.3241E+02
   5.530  0.3479E+01  0.3245E+02
   5.540  0.3601E+01  0.3248E+02
   5.550  0.3829E+01  0.3252E+02
   5.560  0.3976E+01  0.3256E+02
   5.570  0.3899E+01  0.3260E+02
   5.580  0.3899E+01  0.3264E+02
   5.590  0.4229E+01  0.3268E+02
   5.600  0.4333E+01  0.3272E+02
   5.610  0.4396E+01  0.3277E+02
   5.620  0.4576E+01  0.3281E+02
   5.630  0.5320E+01  0.3286E+02
   5.640  0.5930E+01  0.3291E+02
   5.650  0.5870E+01  0.3297E+02
   5.660  0.5308E+01  0.3303E+02
   5.670  0.5309E+01  0.3308E+02
   5.680  0.5872E+01  0.3314E+02
   5.690  0.5612E+01  0.3319E+02
   5.700  0.4957E+01  0.3324E+02
   5.710  0.4349E+01  0.3329E+02
   5.720  0.3787E+01  0.3333E+02
   5.730  0.3567E+01  0.3337E+02
   5.740  0.3825E+01  0.3341E+02
   5.750  0.3667E+01  0.3344E+02
   5.760  0.3760E+01  0.3348E+02
   5.770  0.3586E+01  0.3352E+02
   5.780  0.3694E+01  0.3355E+02
   5.790  0.3494E+01  0.3359E+02
   5.800  0.3399E+01  0.3362E+02
   5.810  0.3375E+01  0.3366E+02
   5.820  0.3384E+01  0.3369E+02
   5.830  0.3457E+01  0.3373E+02
   5.840  0.3573E+01  0.3376E+02
   5.850  0.3860E+01  0.3380E+02
   5.860  0.3951E+01  0.3384E+02
   5.870  0.4195E+01  0.3388E+02
   5.880  0.4086E+01  0.3392E+02
   5.890  0.4042E+01  0.3396E+02
   5.900  0.3978E+01  0.3400E+02
   5.910  0.3968E+01  0.3404E+02
   5.920  0.3971E+01  0.3408E+02
   5.930  0.3994E+01  0.3412E+02
   5.940  0.3984E+01  0.3416E+02
   5.950  0.4067E+01  0.3420E+02
   5.960  0.4400E+01  0.3424E+02
   5.970  0.4351E+01  0.3428E+02
   5.980  0.4768E+01  0.3433E+02
   5.990  0.4776E+01  0.3438E+02
   6.000  0.5542E+01  0.3443E+02
   6.010  0.5642E+01  0.3448E+02
   6.020  0.5007E+01  0.3454E+02
   6.030  0.4428E+01  0.3458E+02
   6.040  0.4061E+01  0.3463E+02
   6.050  0.3852E+01  0.3467E+02
   6.060  0.3895E+01  0.3471E+02
   6.070  0.3957E+01  0.3474E+02
   6.080  0.4092E+01  0.3478E+02
   6.090  0.4104E+01  0.3483E+02
   6.100  0.4399E+01  0.3487E+02
   6.110  0.4492E+01  0.3491E+02
   6.120  0.4627E+01  0.3496E+02
   6.130  0.4658E+01  0.3500E+02
   6.140  0.4751E+01  0.3505E+02
   6.150  0.4915E+01  0.3510E+02
   6.160  0.5067E+01  0.3515E+02
   6.170  0.5395E+01  0.3520E+02
   6.180  0.5903E+01  0.3526E+02
   6.190  0.6158E+01  0.3532E+02
   6.200  0.6068E+01  0.3538E+02
   6.210  0.5637E+01  0.3544E+02
   6.220  0.5219E+01  0.3550E+02
   6.230  0.4996E+01  0.3555E+02
   6.240  0.4879E+01  0.3560E+02
   6.250  0.4847E+01  0.3565E+02
   6.260  0.4718E+01  0.3569E+02
   6.270  0.4687E+01  0.3574E+02
   6.280  0.4459E+01  0.3579E+02
   6.290  0.4394E+01  0.3583E+02
   6.300  0.4343E+01  0.3587E+02
   6.310  0.4313E+01  0.3592E+02
   6.320  0.4158E+01  0.3596E+02
   6.330  0.4093E+01  0.3600E+02
   6.340  0.4045E+01  0.3604E+02
   6.350  0.4027E+01  0.3608E+02
   6.360  0.3964E+01  0.3612E+02
   6.370  0.3828E+01  0.3616E+02
   6.380  0.3783E+01  0.3620E+02
   6.390  0.3720E+01  0.3624E+02
   6.400  0.3694E+01  0.3628E+02
   6.410  0.3648E+01  0.3631E+02
   6.420  0.3942E+01  0.3635E+02
   6.430  0.3583E+01  0.3639E+02
   6.440  0.3587E+01  0.3642E+02
   6.450  0.3641E+01  0.3646E+02
   6.460  0.3658E+01  0.3650E+02
   6.470  0.3618E+01  0.3653E+02
   6.480  0.3578E+01  0.3657E+02
   6.490  0.3282E+01  0.3660E+02
   6.500  0.3217E+01  0.3664E+02
   6.510  0.3192E+01  0.3667E+02
   6.520  0.3184E+01  0.3670E+02
   6.530  0.3189E+01  0.3673E+02
   6.540  0.3201E+01  0.3676E+02
   6.550  0.3196E+01  0.3679E+02
   6.560  0.3193E+01  0.3683E+02
   6.570  0.3204E+01  0.3686E+02
   6.580  0.3219E+01  0.3689E+02
   6.590  0.3245E+01  0.3692E+02
   6.600  0.3273E+01  0.3696E+02
   6.610  0.3362E+01  0.3699E+02
   6.620  0.3425E+01  0.3702E+02
   6.630  0.3625E+01  0.3706E+02
   6.640  0.3725E+01  0.3709E+02
   6.650  0.3327E+01  0.3713E+02
   6.660  0.3297E+01  0.3716E+02
   6.670  0.3309E+01  0.3720E+02
   6.680  0.3351E+01  0.3723E+02
   6.690  0.3407E+01  0.3726E+02
   6.700  0.3462E+01  0.3730E+02
   6.710  0.3513E+01  0.3733E+02
   6.720  0.3639E+01  0.3737E+02
   6.730  0.3834E+01  0.3741E+02
   6.740  0.4456E+01  0.3745E+02
   6.750  0.5000E+01  0.3749E+02
   6.760  0.4802E+01  0.3754E+02
   6.770  0.7481E+01  0.3759E+02
   6.780  0.5059E+01  0.3764E+02
   6.790  0.5040E+01  0.3769E+02
   6.800  0.4219E+01  0.3774E+02
   6.810  0.4020E+01  0.3778E+02
   6.820  0.3977E+01  0.3782E+02
   6.830  0.3928E+01  0.3786E+02
   6.840  0.4146E+01  0.3790E+02
   6.850  0.3807E+01  0.3794E+02
   6.860  0.3796E+01  0.3798E+02
   6.870  0.3692E+01  0.3801E+02
   6.880  0.3635E+01  0.3805E+02
   6.890  0.3601E+01  0.3809E+02
   6.900  0.3797E+01  0.3812E+02
   6.910  0.3586E+01  0.3816E+02
   6.920  0.3593E+01  0.3820E+02
   6.930  0.3535E+01  0.3823E+02
   6.940  0.3526E+01  0.3827E+02
   6.950  0.3480E+01  0.3830E+02
   6.960  0.3454E+01  0.3834E+02
   6.970  0.3459E+01  0.3837E+02
   6.980  0.3772E+01  0.3841E+02
   6.990  0.3529E+01  0.3844E+02
   7.000  0.3581E+01  0.3848E+02
   7.010  0.3607E+01  0.3852E+02
   7.020  0.3589E+01  0.3855E+02
   7.030  0.3733E+01  0.3859E+02
   7.040  0.4004E+01  0.3863E+02
   7.050  0.4206E+01  0.3867E+02
   7.060  0.4816E+01  0.3871E+02
   7.070  0.4972E+01  0.3876E+02
   7.080  0.4532E+01  0.3881E+02
   7.090  0.4417E+01  0.3885E+02
   7.100  0.4314E+01  0.3890E+02
   7.110  0.4277E+01  0.3894E+02
   7.120  0.4259E+01  0.3898E+02
   7.130  0.4220E+01  0.3903E+02
   7.140  0.4627E+01  0.3907E+02
   7.150  0.4349E+01  0.3912E+02
   7.160  0.4176E+01  0.3916E+02
   7.170  0.4390E+01  0.3920E+02
   7.180  0.4373E+01  0.3925E+02
   7.190  0.4291E+01  0.3929E+02
   7.200  0.4373E+01  0.3933E+02
   7.210  0.4592E+01  0.3938E+02
   7.220  0.5057E+01  0.3942E+02
   7.230  0.5136E+01  0.3948E+02
   7.240  0.5429E+01  0.3953E+02
   7.250  0.5957E+01  0.3958E+02
   7.260  0.6200E+01  0.3965E+02
   7.270  0.7196E+01  0.3971E+02
   7.280  0.5508E+01  0.3980E+02
   7.290  0.5164E+01  0.3985E+02
   7.300  0.4570E+01  0.3990E+02
   7.310  0.4308E+01  0.3994E+02
   7.320  0.4313E+01  0.3999E+02
   7.330  0.4308E+01  0.4003E+02
   7.340  0.4293E+01  0.4007E+02
   7.350  0.4239E+01  0.4012E+02
   7.360  0.4196E+01  0.4016E+02
   7.370  0.4208E+01  0.4020E+02
   7.380  0.4030E+01  0.4024E+02
   7.390  0.4016E+01  0.4028E+02
   7.400  0.4059E+01  0.4032E+02
   7.410  0.4167E+01  0.4036E+02
   7.420  0.4574E+01  0.4041E+02
   7.430  0.4480E+01  0.4045E+02
   7.440  0.4608E+01  0.4050E+02
   7.450  0.4783E+01  0.4054E+02
   7.460  0.4994E+01  0.4059E+02
   7.470  0.5754E+01  0.4065E+02
   7.480  0.5428E+01  0.4071E+02
   7.490  0.5449E+01  0.4076E+02
   7.500  0.5305E+01  0.4082E+02
   7.510  0.5517E+01  0.4087E+02
   7.520  0.4991E+01  0.4092E+02
   7.530  0.4608E+01  0.4097E+02
   7.540  0.4656E+01  0.4102E+02
   7.550  0.4402E+01  0.4106E+02
   7.560  0.4459E+01  0.4111E+02
   7.570  0.4006E+01  0.4115E+02
   7.580  0.3870E+01  0.4119E+02
   7.590  0.3848E+01  0.4123E+02
   7.600  0.3915E+01  0.4127E+02
   7.610  0.3988E+01  0.4131E+02
   7.620  0.3986E+01  0.4135E+02
   7.630  0.4069E+01  0.4139E+02
   7.640  0.4159E+01  0.4143E+02
   7.650  0.4303E+01  0.4147E+02
   7.660  0.4879E+01  0.4151E+02
   7.670  0.4988E+01  0.4157E+02
   7.680  0.4765E+01  0.4162E+02
   7.690  0.4982E+01  0.4167E+02
   7.700  0.4950E+01  0.4172E+02
   7.710  0.5088E+01  0.4177E+02
   7.720  0.4833E+01  0.4182E+02
   7.730  0.5453E+01  0.4187E+02
   7.740  0.5478E+01  0.4192E+02
   7.750  0.5584E+01  0.4198E+02
   7.760  0.5732E+01  0.4204E+02
   7.770  0.5903E+01  0.4209E+02
   7.780  0.5995E+01  0.4215E+02
   7.790  0.6111E+01  0.4221E+02
   7.800  0.5925E+01  0.4227E+02
   7.810  0.6127E+01  0.4233E+02
   7.820  0.6663E+01  0.4240E+02
   7.830  0.7127E+01  0.4247E+02
   7.840  0.5985E+01  0.4254E+02
   7.850  0.5425E+01  0.4260E+02
   7.860  0.5301E+01  0.4265E+02
   7.870  0.5162E+01  0.4270E+02
   7.880  0.5081E+01  0.4275E+02
   7.890  0.5011E+01  0.4281E+02
   7.900  0.4738E+01  0.4285E+02
   7.910  0.5038E+01  0.4290E+02
   7.920  0.5591E+01  0.4296E+02
   7.930  0.5429E+01  0.4301E+02
   7.940  0.5331E+01  0.4306E+02
   7.950  0.5160E+01  0.4312E+02
   7.960  0.5102E+01  0.4317E+02
   7.970  0.4746E+01  0.4322E+02
   7.980  0.4569E+01  0.4326E+02
   7.990  0.4335E+01  0.4331E+02
   8.000  0.4427E+01  0.4335E+02
   8.010  0.4110E+01  0.4339E+02
   8.020  0.3739E+01  0.4343E+02
   8.030  0.3680E+01  0.4347E+02
   8.040  0.3555E+01  0.4351E+02
   8.050  0.3704E+01  0.4354E+02
   8.060  0.3795E+01  0.4358E+02
   8.070  0.3664E+01  0.4362E+02
   8.080  0.3878E+01  0.4366E+02
   8.090  0.3890E+01  0.4369E+02
   8.100  0.3966E+01  0.4373E+02
   8.110  0.4136E+01  0.4377E+02
   8.120  0.4193E+01  0.4382E+02
   8.130  0.4316E+01  0.4386E+02
   8.140  0.5061E+01  0.4390E+02
   8.150  0.5263E+01  0.4396E+02
   8.160  0.6054E+01  0.4401E+02
   8.170  0.6562E+01  0.4407E+02
   8.180  0.6878E+01  0.4414E+02
   8.190  0.7378E+01  0.4421E+02
   8.200  0.7383E+01  0.4429E+02
   8.210  0.6962E+01  0.4436E+02
   8.220  0.6842E+01  0.4443E+02
   8.230  0.6624E+01  0.4450E+02
   8.240  0.6526E+01  0.4456E+02
   8.250  0.6300E+01  0.4463E+02
   8.260  0.6308E+01  0.4469E+02
   8.270  0.6569E+01  0.4475E+02
   8.280  0.6829E+01  0.4482E+02
   8.290  0.6476E+01  0.4489E+02
   8.300  0.6802E+01  0.4495E+02
   8.310  0.7135E+01  0.4502E+02
   8.320  0.6383E+01  0.4509E+02
   8.330  0.6826E+01  0.4516E+02
   8.340  0.7249E+01  0.4523E+02
   8.350  0.6528E+01  0.4530E+02
   8.360  0.5477E+01  0.4535E+02
   8.370  0.5579E+01  0.4541E+02
   8.380  0.5894E+01  0.4546E+02
   8.390  0.6219E+01  0.4553E+02
   8.400  0.5882E+01  0.4559E+02
   8.410  0.5780E+01  0.4565E+02
   8.420  0.5935E+01  0.4570E+02
   8.430  0.5909E+01  0.4577E+02
   8.440  0.5596E+01  0.4582E+02
   8.450  0.5112E+01  0.4588E+02
   8.460  0.5112E+01  0.4593E+02
   8.470  0.5555E+01  0.4598E+02
   8.480  0.5611E+01  0.4604E+02
   8.490  0.5216E+01  0.4609E+02
   8.500  0.5185E+01  0.4614E+02
   8.510  0.5172E+01  0.4620E+02
   8.520  0.5532E+01  0.4625E+02
   8.530  0.5413E+01  0.4630E+02
   8.540  0.5929E+01  0.4636E+02
   8.550  0.5830E+01  0.4642E+02
   8.560  0.6188E+01  0.4648E+02
   8.570  0.5661E+01  0.4654E+02
   8.580  0.5609E+01  0.4659E+02
   8.590  0.5540E+01  0.4665E+02
   8.600  0.4994E+01  0.4670E+02
   8.610  0.4905E+01  0.4675E+02
   8.620  0.5441E+01  0.4680E+02
   8.630  0.5112E+01  0.4685E+02
   8.640  0.5309E+01  0.4690E+02
   8.650  0.5699E+01  0.4696E+02
   8.660  0.5446E+01  0.4702E+02
   8.670  0.5472E+01  0.4707E+02
   8.680  0.5240E+01  0.4712E+02
   8.690  0.4954E+01  0.4718E+02
   8.700  0.5098E+01  0.4723E+02
   8.710  0.5191E+01  0.4728E+02
   8.720  0.5725E+01  0.4733E+02
   8.730  0.5184E+01  0.4738E+02
   8.740  0.4901E+01  0.4743E+02
   8.750  0.4818E+01  0.4748E+02
   8.760  0.5690E+01  0.4753E+02
   8.770  0.5025E+01  0.4759E+02
   8.780  0.4901E+01  0.4764E+02
   8.790  0.4855E+01  0.4769E+02
   8.800  0.4728E+01  0.4773E+02
   8.810  0.4514E+01  0.4778E+02
   8.820  0.4660E+01  0.4783E+02
   8.830  0.4708E+01  0.4787E+02
   8.840  0.4650E+01  0.4792E+02
   8.850  0.4810E+01  0.4797E+02
   8.860  0.4767E+01  0.4802E+02
   8.870  0.4818E+01  0.4806E+02
   8.880  0.4611E+01  0.4811E+02
   8.890  0.4254E+01  0.4815E+02
   8.900  0.4807E+01  0.4820E+02
   8.910  0.4246E+01  0.4824E+02
   8.920  0.4150E+01  0.4828E+02
   8.930  0.3954E+01  0.4832E+02
   8.940  0.4092E+01  0.4836E+02
   8.950  0.4255E+01  0.4841E+02
   8.960  0.4219E+01  0.4845E+02
   8.970  0.3936E+01  0.4849E+02
   8.980  0.3844E+01  0.4853E+02
   8.990  0.3775E+01  0.4857E+02
   9.000  0.3991E+01  0.4861E+02
   9.010  0.4290E+01  0.4865E+02
   9.020  0.4183E+01  0.4869E+02
   9.030  0.4240E+01  0.4873E+02
   9.040  0.4374E+01  0.4877E+02
   9.050  0.4577E+01  0.4882E+02
   9.060  0.4787E+01  0.4887E+02
   9.070  0.5004E+01  0.4891E+02
   9.080  0.5408E+01  0.4897E+02
   9.090  0.6352E+01  0.4903E+02
   9.100  0.6846E+01  0.4909E+02
   9.110  0.7134E+01  0.4916E+02
   9.120  0.7939E+01  0.4924E+02
   9.130  0.8963E+01  0.4932E+02
   9.140  0.1065E+02  0.4942E+02
   9.150  0.8432E+01  0.4950E+02
   9.160  0.8945E+01  0.4959E+02
   9.170  0.8855E+01  0.4968E+02
   9.180  0.8842E+01  0.4977E+02
   9.190  0.8259E+01  0.4986E+02
   9.200  0.7249E+01  0.4994E+02
   9.210  0.6160E+01  0.5000E+02
   9.220  0.5920E+01  0.5007E+02
   9.230  0.5991E+01  0.5012E+02
   9.240  0.5815E+01  0.5018E+02
   9.250  0.5664E+01  0.5024E+02
   9.260  0.6011E+01  0.5030E+02
   9.270  0.5834E+01  0.5036E+02
   9.280  0.5409E+01  0.5042E+02
   9.290  0.5438E+01  0.5047E+02
   9.300  0.5213E+01  0.5052E+02
   9.310  0.5397E+01  0.5058E+02
   9.320  0.5308E+01  0.5063E+02
   9.330  0.4816E+01  0.5068E+02
   9.340  0.4796E+01  0.5073E+02
   9.350  0.5473E+01  0.5078E+02
   9.360  0.3948E+01  0.5082E+02
   9.370  0.4027E+01  0.5086E+02
   9.380  0.4162E+01  0.5090E+02
   9.390  0.4383E+01  0.5094E+02
   9.400  0.4420E+01  0.5099E+02
   9.410  0.4474E+01  0.5103E+02
   9.420  0.4234E+01  0.5107E+02
   9.430  0.4839E+01  0.5112E+02
   9.440  0.4358E+01  0.5117E+02
   9.450  0.3851E+01  0.5121E+02
   9.460  0.3918E+01  0.5125E+02
   9.470  0.3895E+01  0.5128E+02
   9.480  0.3953E+01  0.5132E+02
   9.490  0.3909E+01  0.5136E+02
   9.500  0.3975E+01  0.5140E+02
   9.510  0.4150E+01  0.5144E+02
   9.520  0.4152E+01  0.5148E+02
   9.530  0.4880E+01  0.5153E+02
   9.540  0.4346E+01  0.5157E+02
   9.550  0.4401E+01  0.5162E+02
   9.560  0.4397E+01  0.5166E+02
   9.570  0.4518E+01  0.5171E+02
   9.580  0.4998E+01  0.5176E+02
   9.590  0.5236E+01  0.5181E+02
   9.600  0.4921E+01  0.5186E+02
   9.610  0.4689E+01  0.5191E+02
   9.620  0.4534E+01  0.5195E+02
   9.630  0.4572E+01  0.5200E+02
   9.640  0.4371E+01  0.5205E+02
   9.650  0.4288E+01  0.5209E+02
   9.660  0.4732E+01  0.5213E+02
   9.670  0.4494E+01  0.5218E+02
   9.680  0.4427E+01  0.5223E+02
   9.690  0.4419E+01  0.5227E+02
   9.700  0.4506E+01  0.5231E+02
   9.710  0.4467E+01  0.5236E+02
   9.720  0.4579E+01  0.5241E+02
   9.730  0.4547E+01  0.5245E+02
   9.740  0.4679E+01  0.5250E+02
   9.750  0.4673E+01  0.5254E+02
   9.760  0.4505E+01  0.5259E+02
   9.770  0.4472E+01  0.5263E+02
   9.780  0.4573E+01  0.5268E+02
   9.790  0.4686E+01  0.5273E+02
   9.800  0.5875E+01  0.5278E+02
   9.810  0.5574E+01  0.5283E+02
   9.820  0.5477E+01  0.5289E+02
   9.830  0.5711E+01  0.5295E+02
   9.840  0.5027E+01  0.5300E+02
   9.850  0.4845E+01  0.5305E+02
   9.860  0.4867E+01  0.5310E+02
   9.870  0.4527E+01  0.5315E+02
   9.880  0.4233E+01  0.5319E+02
   9.890  0.4097E+01  0.5323E+02
   9.900  0.4069E+01  0.5327E+02
   9.910  0.3825E+01  0.5331E+02
   9.920  0.3759E+01  0.5335E+02
   9.930  0.3637E+01  0.5339E+02
   9.940  0.3589E+01  0.5343E+02
   9.950  0.3513E+01  0.5346E+02
   9.960  0.4333E+01  0.5350E+02
   9.970  0.4286E+01  0.5354E+02
   9.980  0.4066E+01  0.5359E+02
   9.990  0.4214E+01  0.5363E+02
  10.000  0.4151E+01  0.5367E+02
  10.010  0.4362E+01  0.5371E+02
  10.020  0.4265E+01  0.5375E+02
  10.030  0.3885E+01  0.5380E+02
  10.040  0.3184E+01  0.5383E+02
  10.050  0.3185E+01  0.5386E+02
  10.060  0.3216E+01  0.5389E+02
  10.070  0.3274E+01  0.5393E+02
  10.080  0.3396E+01  0.5396E+02
  10.090  0.3547E+01  0.5399E+02
  10.100  0.3588E+01  0.5403E+02
  10.110  0.3682E+01  0.5407E+02
  10.120  0.4354E+01  0.5411E+02
  10.130  0.4709E+01  0.5415E+02
  10.140  0.4652E+01  0.5420E+02
  10.150  0.4908E+01  0.5425E+02
  10.160  0.5159E+01  0.5430E+02
  10.170  0.5303E+01  0.5435E+02
  10.180  0.5368E+01  0.5440E+02
  10.190  0.5519E+01  0.5446E+02
  10.200  0.6092E+01  0.5452E+02
  10.210  0.6384E+01  0.5458E+02
  10.220  0.6083E+01  0.5464E+02
  10.230  0.5706E+01  0.5470E+02
  10.240  0.5030E+01  0.5475E+02
  10.250  0.4776E+01  0.5480E+02
  10.260  0.4681E+01  0.5485E+02
  10.270  0.4599E+01  0.5490E+02
  10.280  0.4259E+01  0.5494E+02
  10.290  0.4406E+01  0.5499E+02
  10.300  0.4641E+01  0.5503E+02
  10.310  0.4750E+01  0.5508E+02
  10.320  0.4947E+01  0.5513E+02
  10.330  0.5077E+01  0.5518E+02
  10.340  0.5169E+01  0.5523E+02
  10.350  0.5075E+01  0.5528E+02
  10.360  0.5235E+01  0.5534E+02
  10.370  0.5371E+01  0.5539E+02
  10.380  0.5546E+01  0.5544E+02
  10.390  0.5422E+01  0.5550E+02
  10.400  0.5124E+01  0.5555E+02
  10.410  0.5088E+01  0.5561E+02
  10.420  0.4974E+01  0.5566E+02
  10.430  0.4895E+01  0.5571E+02
  10.440  0.4771E+01  0.5575E+02
  10.450  0.4931E+01  0.5580E+02
  10.460  0.4671E+01  0.5585E+02
  10.470  0.4559E+01  0.5590E+02
  10.480  0.4491E+01  0.5594E+02
  10.490  0.4190E+01  0.5598E+02
  10.500  0.4124E+01  0.5603E+02
  10.510  0.4264E+01  0.5607E+02
  10.520  0.4030E+01  0.5611E+02
  10.530  0.4082E+01  0.5615E+02
  10.540  0.4010E+01  0.5619E+02
  10.550  0.3983E+01  0.5623E+02
  10.560  0.4152E+01  0.5627E+02
  10.570  0.4224E+01  0.5631E+02
  10.580  0.4334E+01  0.5636E+02
  10.590  0.4559E+01  0.5640E+02
  10.600  0.5594E+01  0.5645E+02
  10.610  0.6857E+01  0.5651E+02
  10.620  0.6901E+01  0.5658E+02
  10.630  0.6147E+01  0.5665E+02
  10.640  0.5062E+01  0.5671E+02
  10.650  0.5029E+01  0.5676E+02
  10.660  0.5414E+01  0.5681E+02
  10.670  0.5396E+01  0.5686E+02
  10.680  0.5838E+01  0.5692E+02
  10.690  0.5600E+01  0.5697E+02
  10.700  0.5966E+01  0.5703E+02
  10.710  0.5893E+01  0.5709E+02
  10.720  0.6018E+01  0.5715E+02
  10.730  0.5843E+01  0.5721E+02
  10.740  0.5837E+01  0.5727E+02
  10.750  0.5941E+01  0.5732E+02
  10.760  0.5524E+01  0.5738E+02
  10.770  0.5915E+01  0.5744E+02
  10.780  0.5915E+01  0.5750E+02
  10.790  0.6487E+01  0.5756E+02
  10.800  0.7123E+01  0.5763E+02
  10.810  0.6591E+01  0.5770E+02
  10.820  0.6247E+01  0.5776E+02
  10.830  0.5889E+01  0.5782E+02
  10.840  0.5889E+01  0.5788E+02
  10.850  0.6040E+01  0.5794E+02
  10.860  0.6117E+01  0.5800E+02
  10.870  0.6282E+01  0.5806E+02
  10.880  0.6702E+01  0.5813E+02
  10.890  0.6921E+01  0.5820E+02
  10.900  0.6520E+01  0.5827E+02
  10.910  0.6289E+01  0.5833E+02
  10.920  0.6155E+01  0.5839E+02
  10.930  0.6401E+01  0.5846E+02
  10.940  0.5731E+01  0.5852E+02
  10.950  0.5444E+01  0.5857E+02
  10.960  0.5613E+01  0.5863E+02
  10.970  0.7456E+01  0.5869E+02
  10.980  0.6045E+01  0.5875E+02
  10.990  0.6697E+01  0.5881E+02
  11.000  0.7133E+01  0.5888E+02
  11.010  0.6304E+01  0.5895E+02
  11.020  0.5918E+01  0.5901E+02
  11.030  0.5724E+01  0.5907E+02
  11.040  0.5715E+01  0.5912E+02
  11.050  0.5997E+01  0.5918E+02
  11.060  0.5988E+01  0.5924E+02
  11.070  0.5895E+01  0.5930E+02
  11.080  0.6333E+01  0.5936E+02
  11.090  0.6054E+01  0.5942E+02
  11.100  0.6222E+01  0.5949E+02
  11.110  0.5925E+01  0.5955E+02
  11.120  0.5832E+01  0.5961E+02
  11.130  0.5868E+01  0.5967E+02
  11.140  0.5957E+01  0.5973E+02
  11.150  0.5220E+01  0.5978E+02
  11.160  0.5094E+01  0.5983E+02
  11.170  0.4935E+01  0.5988E+02
  11.180  0.4905E+01  0.5993E+02
  11.190  0.4689E+01  0.5998E+02
  11.200  0.4457E+01  0.6002E+02
  11.210  0.4319E+01  0.6007E+02
  11.220  0.4400E+01  0.6011E+02
  11.230  0.4399E+01  0.6016E+02
  11.240  0.4436E+01  0.6020E+02
  11.250  0.4606E+01  0.6025E+02
  11.260  0.5022E+01  0.6029E+02
  11.270  0.5505E+01  0.6035E+02
  11.280  0.6485E+01  0.6041E+02
  11.290  0.6921E+01  0.6047E+02
  11.300  0.7572E+01  0.6054E+02
  11.310  0.7427E+01  0.6062E+02
  11.320  0.7348E+01  0.6070E+02
  11.330  0.7459E+01  0.6077E+02
  11.340  0.7873E+01  0.6085E+02
  11.350  0.8106E+01  0.6093E+02
  11.360  0.7416E+01  0.6100E+02
  11.370  0.7097E+01  0.6108E+02
  11.380  0.6621E+01  0.6115E+02
  11.390  0.6356E+01  0.6121E+02
  11.400  0.5901E+01  0.6127E+02
  11.410  0.5951E+01  0.6133E+02
  11.420  0.5542E+01  0.6139E+02
  11.430  0.5131E+01  0.6144E+02
  11.440  0.5333E+01  0.6150E+02
  11.450  0.5155E+01  0.6155E+02
  11.460  0.5049E+01  0.6160E+02
  11.470  0.5032E+01  0.6165E+02
  11.480  0.5043E+01  0.6170E+02
  11.490  0.4941E+01  0.6175E+02
  11.500  0.4902E+01  0.6180E+02
  11.510  0.4738E+01  0.6185E+02
  11.520  0.4576E+01  0.6189E+02
  11.530  0.4315E+01  0.6194E+02
  11.540  0.4297E+01  0.6198E+02
  11.550  0.4283E+01  0.6202E+02
  11.560  0.5159E+01  0.6207E+02
  11.570  0.4429E+01  0.6211E+02
  11.580  0.4617E+01  0.6216E+02
  11.590  0.4732E+01  0.6220E+02
  11.600  0.4823E+01  0.6225E+02
  11.610  0.4760E+01  0.6230E+02
  11.620  0.4626E+01  0.6235E+02
  11.630  0.4913E+01  0.6240E+02
  11.640  0.5112E+01  0.6245E+02
  11.650  0.5616E+01  0.6250E+02
  11.660  0.5871E+01  0.6256E+02
  11.670  0.5786E+01  0.6262E+02
  11.680  0.6116E+01  0.6268E+02
  11.690  0.6485E+01  0.6274E+02
  11.700  0.6455E+01  0.6281E+02
  11.710  0.6541E+01  0.6287E+02
  11.720  0.6482E+01  0.6294E+02
  11.730  0.6452E+01  0.6300E+02
  11.740  0.6743E+01  0.6307E+02
  11.750  0.6563E+01  0.6313E+02
  11.760  0.6449E+01  0.6320E+02
  11.770  0.6237E+01  0.6327E+02
  11.780  0.5979E+01  0.6333E+02
  11.790  0.5981E+01  0.6339E+02
  11.800  0.5764E+01  0.6345E+02
  11.810  0.5494E+01  0.6350E+02
  11.820  0.5390E+01  0.6356E+02
  11.830  0.5218E+01  0.6361E+02
  11.840  0.5628E+01  0.6366E+02
  11.850  0.5961E+01  0.6372E+02
  11.860  0.5609E+01  0.6378E+02
  11.870  0.5597E+01  0.6384E+02
  11.880  0.5540E+01  0.6389E+02
  11.890  0.5643E+01  0.6395E+02
  11.900  0.5527E+01  0.6401E+02
  11.910  0.5474E+01  0.6406E+02
  11.920  0.5793E+01  0.6412E+02
  11.930  0.5889E+01  0.6418E+02
  11.940  0.5539E+01  0.6423E+02
  11.950  0.5703E+01  0.6429E+02
  11.960  0.5661E+01  0.6435E+02
  11.970  0.5501E+01  0.6440E+02
  11.980  0.5527E+01  0.6446E+02
  11.990  0.5970E+01  0.6452E+02
  12.000  0.5875E+01  0.6458E+02
  12.010  0.6045E+01  0.6464E+02
  12.020  0.6074E+01  0.6470E+02
  12.030  0.6236E+01  0.6476E+02
  12.040  0.5880E+01  0.6482E+02
  12.050  0.5671E+01  0.6487E+02
  12.060  0.5659E+01  0.6493E+02
  12.070  0.5588E+01  0.6499E+02
  12.080  0.5492E+01  0.6504E+02
  12.090  0.5801E+01  0.6510E+02
  12.100  0.5862E+01  0.6516E+02
  12.110  0.6383E+01  0.6522E+02
  12.120  0.6087E+01  0.6528E+02
  12.130  0.5696E+01  0.6534E+02
  12.140  0.5373E+01  0.6540E+02
  12.150  0.5275E+01  0.6545E+02
  12.160  0.5260E+01  0.6550E+02
  12.170  0.4634E+01  0.6555E+02
  12.180  0.4396E+01  0.6560E+02
  12.190  0.4398E+01  0.6564E+02
  12.200  0.4430E+01  0.6569E+02
  12.210  0.4416E+01  0.6573E+02
  12.220  0.4404E+01  0.6577E+02
  12.230  0.4432E+01  0.6582E+02
  12.240  0.4512E+01  0.6586E+02
  12.250  0.4471E+01  0.6591E+02
  12.260  0.4387E+01  0.6595E+02
  12.270  0.4352E+01  0.6600E+02
  12.280  0.4472E+01  0.6604E+02
  12.290  0.4685E+01  0.6609E+02
  12.300  0.5220E+01  0.6614E+02
  12.310  0.5549E+01  0.6619E+02
  12.320  0.6569E+01  0.6625E+02
  12.330  0.4147E+01  0.6630E+02
  12.340  0.4178E+01  0.6634E+02
  12.350  0.4218E+01  0.6638E+02
  12.360  0.4239E+01  0.6642E+02
  12.370  0.4376E+01  0.6646E+02
  12.380  0.4584E+01  0.6651E+02
  12.390  0.4738E+01  0.6656E+02
  12.400  0.5373E+01  0.6661E+02
  12.410  0.5201E+01  0.6666E+02
  12.420  0.5232E+01  0.6671E+02
  12.430  0.5321E+01  0.6676E+02
  12.440  0.5705E+01  0.6682E+02
  12.450  0.5617E+01  0.6687E+02
  12.460  0.5631E+01  0.6693E+02
  12.470  0.5578E+01  0.6699E+02
  12.480  0.5523E+01  0.6704E+02
  12.490  0.5604E+01  0.6710E+02
  12.500  0.5741E+01  0.6716E+02
  12.510  0.5813E+01  0.6721E+02
  12.520  0.5635E+01  0.6727E+02
  12.530  0.5903E+01  0.6733E+02
  12.540  0.6286E+01  0.6739E+02
  12.550  0.5275E+01  0.6745E+02
  12.560  0.5078E+01  0.6750E+02
  12.570  0.4580E+01  0.6755E+02
  12.580  0.4500E+01  0.6760E+02
  12.590  0.4578E+01  0.6764E+02
  12.600  0.4523E+01  0.6769E+02
  12.610  0.4347E+01  0.6773E+02
  12.620  0.4172E+01  0.6777E+02
  12.630  0.4071E+01  0.6781E+02
  12.640  0.3943E+01  0.6785E+02
  12.650  0.3959E+01  0.6789E+02
  12.660  0.3948E+01  0.6793E+02
  12.670  0.3884E+01  0.6797E+02
  12.680  0.3747E+01  0.6801E+02
  12.690  0.3830E+01  0.6805E+02
  12.700  0.3803E+01  0.6809E+02
  12.710  0.3728E+01  0.6812E+02
  12.720  0.3735E+01  0.6816E+02
  12.730  0.3705E+01  0.6820E+02
  12.740  0.3824E+01  0.6824E+02
  12.750  0.3534E+01  0.6828E+02
  12.760  0.3346E+01  0.6831E+02
  12.770  0.3223E+01  0.6834E+02
  12.780  0.3126E+01  0.6838E+02
  12.790  0.3021E+01  0.6841E+02
  12.800  0.3261E+01  0.6844E+02
  12.810  0.3629E+01  0.6847E+02
  12.820  0.2862E+01  0.6850E+02
  12.830  0.2856E+01  0.6853E+02
  12.840  0.2848E+01  0.6856E+02
  12.850  0.2751E+01  0.6859E+02
  12.860  0.2698E+01  0.6862E+02
  12.870  0.2785E+01  0.6864E+02
  12.880  0.2757E+01  0.6867E+02
  12.890  0.2683E+01  0.6870E+02
  12.900  0.2656E+01  0.6872E+02
  12.910  0.2554E+01  0.6875E+02
  12.920  0.2526E+01  0.6878E+02
  12.930  0.2964E+01  0.6880E+02
  12.940  0.3243E+01  0.6883E+02
  12.950  0.3578E+01  0.6887E+02
  12.960  0.3936E+01  0.6891E+02
  12.970  0.3515E+01  0.6894E+02
  12.980  0.3362E+01  0.6898E+02
  12.990  0.3974E+01  0.6901E+02
  13.000  0.4735E+01  0.6906E+02
  13.010  0.4562E+01  0.6911E+02
  13.020  0.4671E+01  0.6915E+02
  13.030  0.4757E+01  0.6920E+02
  13.040  0.5014E+01  0.6925E+02
  13.050  0.5742E+01  0.6931E+02
  13.060  0.5545E+01  0.6937E+02
  13.070  0.5037E+01  0.6942E+02
  13.080  0.5995E+01  0.6947E+02
  13.090  0.4167E+01  0.6952E+02
  13.100  0.3950E+01  0.6956E+02
  13.110  0.3819E+01  0.6960E+02
  13.120  0.3540E+01  0.6963E+02
  13.130  0.3530E+01  0.6967E+02
  13.140  0.3705E+01  0.6971E+02
  13.150  0.3827E+01  0.6974E+02
  13.160  0.3300E+01  0.6978E+02
  13.170  0.3155E+01  0.6981E+02
  13.180  0.2915E+01  0.6984E+02
  13.190  0.2762E+01  0.6987E+02
  13.200  0.2827E+01  0.6990E+02
  13.210  0.2518E+01  0.6993E+02
  13.220  0.2252E+01  0.6995E+02
  13.230  0.2238E+01  0.6997E+02
  13.240  0.2244E+01  0.6999E+02
  13.250  0.2267E+01  0.7002E+02
  13.260  0.2304E+01  0.7004E+02
  13.270  0.2338E+01  0.7006E+02
  13.280  0.2994E+01  0.7009E+02
  13.290  0.2911E+01  0.7012E+02
  13.300  0.2313E+01  0.7014E+02
  13.310  0.2244E+01  0.7016E+02
  13.320  0.2216E+01  0.7019E+02
  13.330  0.2180E+01  0.7021E+02
  13.340  0.2276E+01  0.7023E+02
  13.350  0.2243E+01  0.7025E+02
  13.360  0.2110E+01  0.7028E+02
  13.370  0.2096E+01  0.7030E+02
  13.380  0.2100E+01  0.7032E+02
  13.390  0.2005E+01  0.7034E+02
  13.400  0.1965E+01  0.7036E+02
  13.410  0.1951E+01  0.7038E+02
  13.420  0.1901E+01  0.7040E+02
  13.430  0.1848E+01  0.7042E+02
  13.440  0.1838E+01  0.7043E+02
  13.450  0.1793E+01  0.7045E+02
  13.460  0.1813E+01  0.7047E+02
  13.470  0.1743E+01  0.7049E+02
  13.480  0.1695E+01  0.7050E+02
  13.490  0.1689E+01  0.7052E+02
  13.500  0.1671E+01  0.7054E+02
  13.510  0.1631E+01  0.7056E+02
  13.520  0.1611E+01  0.7057E+02
  13.530  0.1569E+01  0.7059E+02
  13.540  0.1486E+01  0.7060E+02
  13.550  0.1428E+01  0.7062E+02
  13.560  0.1392E+01  0.7063E+02
  13.570  0.1440E+01  0.7065E+02
  13.580  0.1460E+01  0.7066E+02
  13.590  0.1268E+01  0.7067E+02
  13.600  0.1261E+01  0.7069E+02
  13.610  0.1254E+01  0.7070E+02
  13.620  0.1253E+01  0.7071E+02
  13.630  0.1252E+01  0.7072E+02
  13.640  0.1249E+01  0.7074E+02
  13.650  0.1254E+01  0.7075E+02
  13.660  0.1249E+01  0.7076E+02
  13.670  0.1252E+01  0.7077E+02
  13.680  0.1256E+01  0.7079E+02
  13.690  0.1254E+01  0.7080E+02
  13.700  0.1227E+01  0.7081E+02
  13.710  0.1230E+01  0.7082E+02
  13.720  0.1244E+01  0.7084E+02
  13.730  0.1265E+01  0.7085E+02
  13.740  0.1288E+01  0.7086E+02
  13.750  0.1311E+01  0.7087E+02
  13.760  0.1344E+01  0.7089E+02
  13.770  0.1354E+01  0.7090E+02
  13.780  0.1402E+01  0.7091E+02
  13.790  0.1378E+01  0.7093E+02
  13.800  0.1365E+01  0.7094E+02
  13.810  0.1354E+01  0.7096E+02
  13.820  0.1354E+01  0.7097E+02
  13.830  0.1466E+01  0.7098E+02
  13.840  0.1484E+01  0.7100E+02
  13.850  0.1429E+01  0.7101E+02
  13.860  0.1387E+01  0.7103E+02
  13.870  0.1367E+01  0.7104E+02
  13.880  0.1308E+01  0.7105E+02
  13.890  0.1244E+01  0.7107E+02
  13.900  0.1170E+01  0.7108E+02
  13.910  0.1122E+01  0.7109E+02
  13.920  0.1089E+01  0.7110E+02
  13.930  0.1056E+01  0.7111E+02
  13.940  0.1027E+01  0.7112E+02
  13.950  0.9572E+00  0.7113E+02
  13.960  0.8074E+00  0.7114E+02
  13.970  0.8257E+00  0.7115E+02
  13.980  0.8206E+00  0.7116E+02
  13.990  0.8197E+00  0.7117E+02
  14.000  0.8181E+00  0.7117E+02
  14.010  0.8143E+00  0.7118E+02
  14.020  0.8123E+00  0.7119E+02
  14.030  0.8241E+00  0.7120E+02
  14.040  0.8283E+00  0.7121E+02
  14.050  0.8347E+00  0.7121E+02
  14.060  0.8938E+00  0.7122E+02
  14.070  0.1015E+01  0.7123E+02
  14.080  0.1129E+01  0.7124E+02
  14.090  0.1256E+01  0.7126E+02
  14.100  0.1387E+01  0.7127E+02
  14.110  0.1390E+01  0.7128E+02
  14.120  0.1391E+01  0.7130E+02
  14.130  0.1415E+01  0.7131E+02
  14.140  0.1475E+01  0.7133E+02
  14.150  0.1430E+01  0.7134E+02
  14.160  0.1471E+01  0.7136E+02
  14.170  0.1510E+01  0.7137E+02
  14.180  0.1478E+01  0.7139E+02
  14.190  0.1420E+01  0.7140E+02
  14.200  0.1427E+01  0.7141E+02
  14.210  0.1488E+01  0.7143E+02
  14.220  0.1479E+01  0.7144E+02
  14.230  0.1356E+01  0.7146E+02
  14.240  0.1295E+01  0.7147E+02
  14.250  0.1274E+01  0.7148E+02
  14.260  0.1284E+01  0.7150E+02
  14.270  0.1316E+01  0.7151E+02
  14.280  0.1359E+01  0.7152E+02
  14.290  0.1371E+01  0.7154E+02
  14.300  0.1344E+01  0.7155E+02
  14.310  0.1316E+01  0.7156E+02
  14.320  0.1325E+01  0.7158E+02
  14.330  0.1552E+01  0.7159E+02
  14.340  0.1598E+01  0.7161E+02
  14.350  0.1602E+01  0.7162E+02
  14.360  0.1304E+01  0.7164E+02
  14.370  0.1287E+01  0.7165E+02
  14.380  0.1275E+01  0.7166E+02
  14.390  0.1278E+01  0.7168E+02
  14.400  0.1310E+01  0.7169E+02
  14.410  0.1134E+01  0.7170E+02
  14.420  0.9792E+00  0.7171E+02
  14.430  0.7810E+00  0.7172E+02
  14.440  0.6167E+00  0.7173E+02
  14.450  0.5481E+00  0.7173E+02
  14.460  0.5191E+00  0.7174E+02
  14.470  0.5241E+00  0.7174E+02
  14.480  0.5773E+00  0.7175E+02
  14.490  0.6688E+00  0.7175E+02
  14.500  0.7607E+00  0.7176E+02
  14.510  0.9628E+00  0.7177E+02
  14.520  0.8340E+00  0.7178E+02
  14.530  0.9592E+00  0.7179E+02
  14.540  0.1067E+01  0.7180E+02
  14.550  0.1181E+01  0.7181E+02
  14.560  0.1361E+01  0.7182E+02
  14.570  0.1697E+01  0.7184E+02
  14.580  0.2140E+01  0.7186E+02
  14.590  0.2227E+01  0.7188E+02
  14.600  0.1912E+01  0.7190E+02
  14.610  0.1459E+01  0.7192E+02
  14.620  0.1115E+01  0.7193E+02
  14.630  0.1002E+01  0.7194E+02
  14.640  0.9780E+00  0.7195E+02
  14.650  0.1037E+01  0.7196E+02
  14.660  0.1061E+01  0.7197E+02
  14.670  0.1112E+01  0.7198E+02
  14.680  0.1253E+01  0.7199E+02
  14.690  0.4201E-01  0.7200E+02
  14.700  0.3053E-01  0.7200E+02
  14.710  0.1906E-01  0.7200E+02
  14.720  0.7586E-02  0.7200E+02
  14.730  0.0000E+00  0.7200E+02
  14.740  0.0000E+00  0.7200E+02
  14.750  0.0000E+00  0.7200E+02
  14.760  0.0000E+00  0.7200E+02
  14.770  0.0000E+00  0.7200E+02
  14.780  0.0000E+00  0.7200E+02
  14.790  0.0000E+00  0.7200E+02
  14.800  0.0000E+00  0.7200E+02
  14.810  0.0000E+00  0.7200E+02
  14.820  0.0000E+00  0.7200E+02
  14.830  0.0000E+00  0.7200E+02
  14.840  0.0000E+00  0.7200E+02
  14.850  0.0000E+00  0.7200E+02
  14.860  0.0000E+00  0.7200E+02
  14.870  0.0000E+00  0.7200E+02
  14.880  0.0000E+00  0.7200E+02
  14.890  0.0000E+00  0.7200E+02
  14.900  0.0000E+00  0.7200E+02
  14.910  0.0000E+00  0.7200E+02
  14.920  0.0000E+00  0.7200E+02
  14.930  0.0000E+00  0.7200E+02
  14.940  0.0000E+00  0.7200E+02
  14.950  0.0000E+00  0.7200E+02
  14.960  0.0000E+00  0.7200E+02
  14.970  0.0000E+00  0.7200E+02
  14.980  0.0000E+00  0.7200E+02
  14.990  0.0000E+00  0.7200E+02
  15.000  0.0000E+00  0.7200E+02
