#  E (eV)   dos(E)     Int dos(E) EFermi =    3.335 eV
 -15.000  0.0000E+00  0.8000E+01
 -14.990  0.0000E+00  0.8000E+01
 -14.980  0.0000E+00  0.8000E+01
 -14.970  0.0000E+00  0.8000E+01
 -14.960  0.0000E+00  0.8000E+01
 -14.950  0.0000E+00  0.8000E+01
 -14.940  0.0000E+00  0.8000E+01
 -14.930  0.0000E+00  0.8000E+01
 -14.920  0.0000E+00  0.8000E+01
 -14.910  0.0000E+00  0.8000E+01
 -14.900  0.0000E+00  0.8000E+01
 -14.890  0.0000E+00  0.8000E+01
 -14.880  0.0000E+00  0.8000E+01
 -14.870  0.0000E+00  0.8000E+01
 -14.860  0.0000E+00  0.8000E+01
 -14.850  0.0000E+00  0.8000E+01
 -14.840  0.0000E+00  0.8000E+01
 -14.830  0.0000E+00  0.8000E+01
 -14.820  0.0000E+00  0.8000E+01
 -14.810  0.0000E+00  0.8000E+01
 -14.800  0.0000E+00  0.8000E+01
 -14.790  0.0000E+00  0.8000E+01
 -14.780  0.0000E+00  0.8000E+01
 -14.770  0.0000E+00  0.8000E+01
 -14.760  0.0000E+00  0.8000E+01
 -14.750  0.0000E+00  0.8000E+01
 -14.740  0.0000E+00  0.8000E+01
 -14.730  0.0000E+00  0.8000E+01
 -14.720  0.0000E+00  0.8000E+01
 -14.710  0.0000E+00  0.8000E+01
 -14.700  0.0000E+00  0.8000E+01
 -14.690  0.0000E+00  0.8000E+01
 -14.680  0.0000E+00  0.8000E+01
 -14.670  0.0000E+00  0.8000E+01
 -14.660  0.0000E+00  0.8000E+01
 -14.650  0.0000E+00  0.8000E+01
 -14.640  0.0000E+00  0.8000E+01
 -14.630  0.0000E+00  0.8000E+01
 -14.620  0.0000E+00  0.8000E+01
 -14.610  0.0000E+00  0.8000E+01
 -14.600  0.0000E+00  0.8000E+01
 -14.590  0.0000E+00  0.8000E+01
 -14.580  0.0000E+00  0.8000E+01
 -14.570  0.0000E+00  0.8000E+01
 -14.560  0.0000E+00  0.8000E+01
 -14.550  0.0000E+00  0.8000E+01
 -14.540  0.0000E+00  0.8000E+01
 -14.530  0.0000E+00  0.8000E+01
 -14.520  0.0000E+00  0.8000E+01
 -14.510  0.0000E+00  0.8000E+01
 -14.500  0.0000E+00  0.8000E+01
 -14.490  0.0000E+00  0.8000E+01
 -14.480  0.0000E+00  0.8000E+01
 -14.470  0.0000E+00  0.8000E+01
 -14.460  0.0000E+00  0.8000E+01
 -14.450  0.0000E+00  0.8000E+01
 -14.440  0.0000E+00  0.8000E+01
 -14.430  0.0000E+00  0.8000E+01
 -14.420  0.0000E+00  0.8000E+01
 -14.410  0.0000E+00  0.8000E+01
 -14.400  0.0000E+00  0.8000E+01
 -14.390  0.0000E+00  0.8000E+01
 -14.380  0.0000E+00  0.8000E+01
 -14.370  0.0000E+00  0.8000E+01
 -14.360  0.0000E+00  0.8000E+01
 -14.350  0.0000E+00  0.8000E+01
 -14.340  0.0000E+00  0.8000E+01
 -14.330  0.0000E+00  0.8000E+01
 -14.320  0.0000E+00  0.8000E+01
 -14.310  0.0000E+00  0.8000E+01
 -14.300  0.0000E+00  0.8000E+01
 -14.290  0.0000E+00  0.8000E+01
 -14.280  0.0000E+00  0.8000E+01
 -14.270  0.0000E+00  0.8000E+01
 -14.260  0.0000E+00  0.8000E+01
 -14.250  0.0000E+00  0.8000E+01
 -14.240  0.0000E+00  0.8000E+01
 -14.230  0.0000E+00  0.8000E+01
 -14.220  0.0000E+00  0.8000E+01
 -14.210  0.0000E+00  0.8000E+01
 -14.200  0.0000E+00  0.8000E+01
 -14.190  0.0000E+00  0.8000E+01
 -14.180  0.0000E+00  0.8000E+01
 -14.170  0.0000E+00  0.8000E+01
 -14.160  0.0000E+00  0.8000E+01
 -14.150  0.0000E+00  0.8000E+01
 -14.140  0.0000E+00  0.8000E+01
 -14.130  0.0000E+00  0.8000E+01
 -14.120  0.0000E+00  0.8000E+01
 -14.110  0.0000E+00  0.8000E+01
 -14.100  0.0000E+00  0.8000E+01
 -14.090  0.0000E+00  0.8000E+01
 -14.080  0.0000E+00  0.8000E+01
 -14.070  0.0000E+00  0.8000E+01
 -14.060  0.0000E+00  0.8000E+01
 -14.050  0.0000E+00  0.8000E+01
 -14.040  0.0000E+00  0.8000E+01
 -14.030  0.0000E+00  0.8000E+01
 -14.020  0.0000E+00  0.8000E+01
 -14.010  0.0000E+00  0.8000E+01
 -14.000  0.0000E+00  0.8000E+01
 -13.990  0.0000E+00  0.8000E+01
 -13.980  0.0000E+00  0.8000E+01
 -13.970  0.0000E+00  0.8000E+01
 -13.960  0.0000E+00  0.8000E+01
 -13.950  0.0000E+00  0.8000E+01
 -13.940  0.0000E+00  0.8000E+01
 -13.930  0.0000E+00  0.8000E+01
 -13.920  0.0000E+00  0.8000E+01
 -13.910  0.0000E+00  0.8000E+01
 -13.900  0.0000E+00  0.8000E+01
 -13.890  0.0000E+00  0.8000E+01
 -13.880  0.0000E+00  0.8000E+01
 -13.870  0.0000E+00  0.8000E+01
 -13.860  0.0000E+00  0.8000E+01
 -13.850  0.0000E+00  0.8000E+01
 -13.840  0.0000E+00  0.8000E+01
 -13.830  0.0000E+00  0.8000E+01
 -13.820  0.0000E+00  0.8000E+01
 -13.810  0.0000E+00  0.8000E+01
 -13.800  0.0000E+00  0.8000E+01
 -13.790  0.0000E+00  0.8000E+01
 -13.780  0.0000E+00  0.8000E+01
 -13.770  0.0000E+00  0.8000E+01
 -13.760  0.0000E+00  0.8000E+01
 -13.750  0.0000E+00  0.8000E+01
 -13.740  0.0000E+00  0.8000E+01
 -13.730  0.0000E+00  0.8000E+01
 -13.720  0.0000E+00  0.8000E+01
 -13.710  0.0000E+00  0.8000E+01
 -13.700  0.0000E+00  0.8000E+01
 -13.690  0.0000E+00  0.8000E+01
 -13.680  0.0000E+00  0.8000E+01
 -13.670  0.0000E+00  0.8000E+01
 -13.660  0.0000E+00  0.8000E+01
 -13.650  0.0000E+00  0.8000E+01
 -13.640  0.0000E+00  0.8000E+01
 -13.630  0.0000E+00  0.8000E+01
 -13.620  0.0000E+00  0.8000E+01
 -13.610  0.0000E+00  0.8000E+01
 -13.600  0.0000E+00  0.8000E+01
 -13.590  0.0000E+00  0.8000E+01
 -13.580  0.0000E+00  0.8000E+01
 -13.570  0.0000E+00  0.8000E+01
 -13.560  0.0000E+00  0.8000E+01
 -13.550  0.0000E+00  0.8000E+01
 -13.540  0.0000E+00  0.8000E+01
 -13.530  0.0000E+00  0.8000E+01
 -13.520  0.0000E+00  0.8000E+01
 -13.510  0.0000E+00  0.8000E+01
 -13.500  0.0000E+00  0.8000E+01
 -13.490  0.0000E+00  0.8000E+01
 -13.480  0.0000E+00  0.8000E+01
 -13.470  0.0000E+00  0.8000E+01
 -13.460  0.0000E+00  0.8000E+01
 -13.450  0.0000E+00  0.8000E+01
 -13.440  0.0000E+00  0.8000E+01
 -13.430  0.0000E+00  0.8000E+01
 -13.420  0.0000E+00  0.8000E+01
 -13.410  0.0000E+00  0.8000E+01
 -13.400  0.0000E+00  0.8000E+01
 -13.390  0.0000E+00  0.8000E+01
 -13.380  0.0000E+00  0.8000E+01
 -13.370  0.0000E+00  0.8000E+01
 -13.360  0.0000E+00  0.8000E+01
 -13.350  0.0000E+00  0.8000E+01
 -13.340  0.0000E+00  0.8000E+01
 -13.330  0.0000E+00  0.8000E+01
 -13.320  0.0000E+00  0.8000E+01
 -13.310  0.0000E+00  0.8000E+01
 -13.300  0.0000E+00  0.8000E+01
 -13.290  0.0000E+00  0.8000E+01
 -13.280  0.0000E+00  0.8000E+01
 -13.270  0.0000E+00  0.8000E+01
 -13.260  0.0000E+00  0.8000E+01
 -13.250  0.0000E+00  0.8000E+01
 -13.240  0.0000E+00  0.8000E+01
 -13.230  0.0000E+00  0.8000E+01
 -13.220  0.0000E+00  0.8000E+01
 -13.210  0.0000E+00  0.8000E+01
 -13.200  0.0000E+00  0.8000E+01
 -13.190  0.0000E+00  0.8000E+01
 -13.180  0.0000E+00  0.8000E+01
 -13.170  0.0000E+00  0.8000E+01
 -13.160  0.0000E+00  0.8000E+01
 -13.150  0.0000E+00  0.8000E+01
 -13.140  0.0000E+00  0.8000E+01
 -13.130  0.0000E+00  0.8000E+01
 -13.120  0.0000E+00  0.8000E+01
 -13.110  0.0000E+00  0.8000E+01
 -13.100  0.0000E+00  0.8000E+01
 -13.090  0.0000E+00  0.8000E+01
 -13.080  0.0000E+00  0.8000E+01
 -13.070  0.0000E+00  0.8000E+01
 -13.060  0.0000E+00  0.8000E+01
 -13.050  0.0000E+00  0.8000E+01
 -13.040  0.0000E+00  0.8000E+01
 -13.030  0.0000E+00  0.8000E+01
 -13.020  0.0000E+00  0.8000E+01
 -13.010  0.0000E+00  0.8000E+01
 -13.000  0.0000E+00  0.8000E+01
 -12.990  0.0000E+00  0.8000E+01
 -12.980  0.0000E+00  0.8000E+01
 -12.970  0.0000E+00  0.8000E+01
 -12.960  0.0000E+00  0.8000E+01
 -12.950  0.0000E+00  0.8000E+01
 -12.940  0.0000E+00  0.8000E+01
 -12.930  0.0000E+00  0.8000E+01
 -12.920  0.0000E+00  0.8000E+01
 -12.910  0.0000E+00  0.8000E+01
 -12.900  0.0000E+00  0.8000E+01
 -12.890  0.0000E+00  0.8000E+01
 -12.880  0.0000E+00  0.8000E+01
 -12.870  0.0000E+00  0.8000E+01
 -12.860  0.0000E+00  0.8000E+01
 -12.850  0.0000E+00  0.8000E+01
 -12.840  0.0000E+00  0.8000E+01
 -12.830  0.0000E+00  0.8000E+01
 -12.820  0.0000E+00  0.8000E+01
 -12.810  0.0000E+00  0.8000E+01
 -12.800  0.0000E+00  0.8000E+01
 -12.790  0.0000E+00  0.8000E+01
 -12.780  0.0000E+00  0.8000E+01
 -12.770  0.0000E+00  0.8000E+01
 -12.760  0.0000E+00  0.8000E+01
 -12.750  0.0000E+00  0.8000E+01
 -12.740  0.0000E+00  0.8000E+01
 -12.730  0.0000E+00  0.8000E+01
 -12.720  0.0000E+00  0.8000E+01
 -12.710  0.0000E+00  0.8000E+01
 -12.700  0.0000E+00  0.8000E+01
 -12.690  0.0000E+00  0.8000E+01
 -12.680  0.0000E+00  0.8000E+01
 -12.670  0.0000E+00  0.8000E+01
 -12.660  0.0000E+00  0.8000E+01
 -12.650  0.0000E+00  0.8000E+01
 -12.640  0.0000E+00  0.8000E+01
 -12.630  0.0000E+00  0.8000E+01
 -12.620  0.0000E+00  0.8000E+01
 -12.610  0.0000E+00  0.8000E+01
 -12.600  0.0000E+00  0.8000E+01
 -12.590  0.0000E+00  0.8000E+01
 -12.580  0.0000E+00  0.8000E+01
 -12.570  0.0000E+00  0.8000E+01
 -12.560  0.0000E+00  0.8000E+01
 -12.550  0.0000E+00  0.8000E+01
 -12.540  0.0000E+00  0.8000E+01
 -12.530  0.0000E+00  0.8000E+01
 -12.520  0.0000E+00  0.8000E+01
 -12.510  0.0000E+00  0.8000E+01
 -12.500  0.0000E+00  0.8000E+01
 -12.490  0.0000E+00  0.8000E+01
 -12.480  0.0000E+00  0.8000E+01
 -12.470  0.0000E+00  0.8000E+01
 -12.460  0.0000E+00  0.8000E+01
 -12.450  0.0000E+00  0.8000E+01
 -12.440  0.0000E+00  0.8000E+01
 -12.430  0.0000E+00  0.8000E+01
 -12.420  0.0000E+00  0.8000E+01
 -12.410  0.0000E+00  0.8000E+01
 -12.400  0.0000E+00  0.8000E+01
 -12.390  0.0000E+00  0.8000E+01
 -12.380  0.0000E+00  0.8000E+01
 -12.370  0.0000E+00  0.8000E+01
 -12.360  0.0000E+00  0.8000E+01
 -12.350  0.0000E+00  0.8000E+01
 -12.340  0.0000E+00  0.8000E+01
 -12.330  0.0000E+00  0.8000E+01
 -12.320  0.0000E+00  0.8000E+01
 -12.310  0.0000E+00  0.8000E+01
 -12.300  0.0000E+00  0.8000E+01
 -12.290  0.0000E+00  0.8000E+01
 -12.280  0.0000E+00  0.8000E+01
 -12.270  0.0000E+00  0.8000E+01
 -12.260  0.0000E+00  0.8000E+01
 -12.250  0.0000E+00  0.8000E+01
 -12.240  0.0000E+00  0.8000E+01
 -12.230  0.0000E+00  0.8000E+01
 -12.220  0.0000E+00  0.8000E+01
 -12.210  0.0000E+00  0.8000E+01
 -12.200  0.0000E+00  0.8000E+01
 -12.190  0.0000E+00  0.8000E+01
 -12.180  0.0000E+00  0.8000E+01
 -12.170  0.0000E+00  0.8000E+01
 -12.160  0.0000E+00  0.8000E+01
 -12.150  0.0000E+00  0.8000E+01
 -12.140  0.0000E+00  0.8000E+01
 -12.130  0.0000E+00  0.8000E+01
 -12.120  0.0000E+00  0.8000E+01
 -12.110  0.0000E+00  0.8000E+01
 -12.100  0.0000E+00  0.8000E+01
 -12.090  0.0000E+00  0.8000E+01
 -12.080  0.0000E+00  0.8000E+01
 -12.070  0.0000E+00  0.8000E+01
 -12.060  0.0000E+00  0.8000E+01
 -12.050  0.0000E+00  0.8000E+01
 -12.040  0.0000E+00  0.8000E+01
 -12.030  0.0000E+00  0.8000E+01
 -12.020  0.0000E+00  0.8000E+01
 -12.010  0.0000E+00  0.8000E+01
 -12.000  0.0000E+00  0.8000E+01
 -11.990  0.0000E+00  0.8000E+01
 -11.980  0.0000E+00  0.8000E+01
 -11.970  0.0000E+00  0.8000E+01
 -11.960  0.0000E+00  0.8000E+01
 -11.950  0.0000E+00  0.8000E+01
 -11.940  0.0000E+00  0.8000E+01
 -11.930  0.0000E+00  0.8000E+01
 -11.920  0.0000E+00  0.8000E+01
 -11.910  0.0000E+00  0.8000E+01
 -11.900  0.0000E+00  0.8000E+01
 -11.890  0.0000E+00  0.8000E+01
 -11.880  0.0000E+00  0.8000E+01
 -11.870  0.0000E+00  0.8000E+01
 -11.860  0.0000E+00  0.8000E+01
 -11.850  0.0000E+00  0.8000E+01
 -11.840  0.0000E+00  0.8000E+01
 -11.830  0.0000E+00  0.8000E+01
 -11.820  0.0000E+00  0.8000E+01
 -11.810  0.0000E+00  0.8000E+01
 -11.800  0.0000E+00  0.8000E+01
 -11.790  0.0000E+00  0.8000E+01
 -11.780  0.0000E+00  0.8000E+01
 -11.770  0.0000E+00  0.8000E+01
 -11.760  0.0000E+00  0.8000E+01
 -11.750  0.0000E+00  0.8000E+01
 -11.740  0.0000E+00  0.8000E+01
 -11.730  0.0000E+00  0.8000E+01
 -11.720  0.0000E+00  0.8000E+01
 -11.710  0.0000E+00  0.8000E+01
 -11.700  0.0000E+00  0.8000E+01
 -11.690  0.0000E+00  0.8000E+01
 -11.680  0.0000E+00  0.8000E+01
 -11.670  0.0000E+00  0.8000E+01
 -11.660  0.0000E+00  0.8000E+01
 -11.650  0.0000E+00  0.8000E+01
 -11.640  0.0000E+00  0.8000E+01
 -11.630  0.0000E+00  0.8000E+01
 -11.620  0.0000E+00  0.8000E+01
 -11.610  0.0000E+00  0.8000E+01
 -11.600  0.0000E+00  0.8000E+01
 -11.590  0.0000E+00  0.8000E+01
 -11.580  0.0000E+00  0.8000E+01
 -11.570  0.0000E+00  0.8000E+01
 -11.560  0.0000E+00  0.8000E+01
 -11.550  0.0000E+00  0.8000E+01
 -11.540  0.0000E+00  0.8000E+01
 -11.530  0.0000E+00  0.8000E+01
 -11.520  0.0000E+00  0.8000E+01
 -11.510  0.0000E+00  0.8000E+01
 -11.500  0.0000E+00  0.8000E+01
 -11.490  0.0000E+00  0.8000E+01
 -11.480  0.0000E+00  0.8000E+01
 -11.470  0.0000E+00  0.8000E+01
 -11.460  0.0000E+00  0.8000E+01
 -11.450  0.0000E+00  0.8000E+01
 -11.440  0.0000E+00  0.8000E+01
 -11.430  0.0000E+00  0.8000E+01
 -11.420  0.0000E+00  0.8000E+01
 -11.410  0.0000E+00  0.8000E+01
 -11.400  0.0000E+00  0.8000E+01
 -11.390  0.0000E+00  0.8000E+01
 -11.380  0.0000E+00  0.8000E+01
 -11.370  0.0000E+00  0.8000E+01
 -11.360  0.0000E+00  0.8000E+01
 -11.350  0.0000E+00  0.8000E+01
 -11.340  0.0000E+00  0.8000E+01
 -11.330  0.0000E+00  0.8000E+01
 -11.320  0.0000E+00  0.8000E+01
 -11.310  0.0000E+00  0.8000E+01
 -11.300  0.0000E+00  0.8000E+01
 -11.290  0.0000E+00  0.8000E+01
 -11.280  0.0000E+00  0.8000E+01
 -11.270  0.0000E+00  0.8000E+01
 -11.260  0.0000E+00  0.8000E+01
 -11.250  0.0000E+00  0.8000E+01
 -11.240  0.0000E+00  0.8000E+01
 -11.230  0.0000E+00  0.8000E+01
 -11.220  0.0000E+00  0.8000E+01
 -11.210  0.0000E+00  0.8000E+01
 -11.200  0.0000E+00  0.8000E+01
 -11.190  0.0000E+00  0.8000E+01
 -11.180  0.0000E+00  0.8000E+01
 -11.170  0.0000E+00  0.8000E+01
 -11.160  0.0000E+00  0.8000E+01
 -11.150  0.0000E+00  0.8000E+01
 -11.140  0.0000E+00  0.8000E+01
 -11.130  0.0000E+00  0.8000E+01
 -11.120  0.0000E+00  0.8000E+01
 -11.110  0.0000E+00  0.8000E+01
 -11.100  0.0000E+00  0.8000E+01
 -11.090  0.0000E+00  0.8000E+01
 -11.080  0.0000E+00  0.8000E+01
 -11.070  0.0000E+00  0.8000E+01
 -11.060  0.0000E+00  0.8000E+01
 -11.050  0.0000E+00  0.8000E+01
 -11.040  0.0000E+00  0.8000E+01
 -11.030  0.0000E+00  0.8000E+01
 -11.020  0.0000E+00  0.8000E+01
 -11.010  0.0000E+00  0.8000E+01
 -11.000  0.0000E+00  0.8000E+01
 -10.990  0.0000E+00  0.8000E+01
 -10.980  0.0000E+00  0.8000E+01
 -10.970  0.0000E+00  0.8000E+01
 -10.960  0.0000E+00  0.8000E+01
 -10.950  0.0000E+00  0.8000E+01
 -10.940  0.0000E+00  0.8000E+01
 -10.930  0.0000E+00  0.8000E+01
 -10.920  0.0000E+00  0.8000E+01
 -10.910  0.0000E+00  0.8000E+01
 -10.900  0.0000E+00  0.8000E+01
 -10.890  0.0000E+00  0.8000E+01
 -10.880  0.0000E+00  0.8000E+01
 -10.870  0.0000E+00  0.8000E+01
 -10.860  0.0000E+00  0.8000E+01
 -10.850  0.0000E+00  0.8000E+01
 -10.840  0.0000E+00  0.8000E+01
 -10.830  0.0000E+00  0.8000E+01
 -10.820  0.0000E+00  0.8000E+01
 -10.810  0.0000E+00  0.8000E+01
 -10.800  0.0000E+00  0.8000E+01
 -10.790  0.0000E+00  0.8000E+01
 -10.780  0.0000E+00  0.8000E+01
 -10.770  0.0000E+00  0.8000E+01
 -10.760  0.0000E+00  0.8000E+01
 -10.750  0.0000E+00  0.8000E+01
 -10.740  0.0000E+00  0.8000E+01
 -10.730  0.0000E+00  0.8000E+01
 -10.720  0.0000E+00  0.8000E+01
 -10.710  0.0000E+00  0.8000E+01
 -10.700  0.0000E+00  0.8000E+01
 -10.690  0.0000E+00  0.8000E+01
 -10.680  0.0000E+00  0.8000E+01
 -10.670  0.0000E+00  0.8000E+01
 -10.660  0.0000E+00  0.8000E+01
 -10.650  0.0000E+00  0.8000E+01
 -10.640  0.0000E+00  0.8000E+01
 -10.630  0.0000E+00  0.8000E+01
 -10.620  0.0000E+00  0.8000E+01
 -10.610  0.0000E+00  0.8000E+01
 -10.600  0.0000E+00  0.8000E+01
 -10.590  0.0000E+00  0.8000E+01
 -10.580  0.0000E+00  0.8000E+01
 -10.570  0.0000E+00  0.8000E+01
 -10.560  0.0000E+00  0.8000E+01
 -10.550  0.0000E+00  0.8000E+01
 -10.540  0.0000E+00  0.8000E+01
 -10.530  0.0000E+00  0.8000E+01
 -10.520  0.0000E+00  0.8000E+01
 -10.510  0.0000E+00  0.8000E+01
 -10.500  0.0000E+00  0.8000E+01
 -10.490  0.0000E+00  0.8000E+01
 -10.480  0.0000E+00  0.8000E+01
 -10.470  0.0000E+00  0.8000E+01
 -10.460  0.0000E+00  0.8000E+01
 -10.450  0.0000E+00  0.8000E+01
 -10.440  0.0000E+00  0.8000E+01
 -10.430  0.0000E+00  0.8000E+01
 -10.420  0.0000E+00  0.8000E+01
 -10.410  0.0000E+00  0.8000E+01
 -10.400  0.0000E+00  0.8000E+01
 -10.390  0.0000E+00  0.8000E+01
 -10.380  0.0000E+00  0.8000E+01
 -10.370  0.0000E+00  0.8000E+01
 -10.360  0.0000E+00  0.8000E+01
 -10.350  0.0000E+00  0.8000E+01
 -10.340  0.0000E+00  0.8000E+01
 -10.330  0.0000E+00  0.8000E+01
 -10.320  0.0000E+00  0.8000E+01
 -10.310  0.0000E+00  0.8000E+01
 -10.300  0.0000E+00  0.8000E+01
 -10.290  0.0000E+00  0.8000E+01
 -10.280  0.0000E+00  0.8000E+01
 -10.270  0.0000E+00  0.8000E+01
 -10.260  0.0000E+00  0.8000E+01
 -10.250  0.0000E+00  0.8000E+01
 -10.240  0.0000E+00  0.8000E+01
 -10.230  0.0000E+00  0.8000E+01
 -10.220  0.0000E+00  0.8000E+01
 -10.210  0.0000E+00  0.8000E+01
 -10.200  0.0000E+00  0.8000E+01
 -10.190  0.0000E+00  0.8000E+01
 -10.180  0.0000E+00  0.8000E+01
 -10.170  0.0000E+00  0.8000E+01
 -10.160  0.0000E+00  0.8000E+01
 -10.150  0.0000E+00  0.8000E+01
 -10.140  0.0000E+00  0.8000E+01
 -10.130  0.0000E+00  0.8000E+01
 -10.120  0.0000E+00  0.8000E+01
 -10.110  0.0000E+00  0.8000E+01
 -10.100  0.0000E+00  0.8000E+01
 -10.090  0.0000E+00  0.8000E+01
 -10.080  0.0000E+00  0.8000E+01
 -10.070  0.0000E+00  0.8000E+01
 -10.060  0.0000E+00  0.8000E+01
 -10.050  0.0000E+00  0.8000E+01
 -10.040  0.0000E+00  0.8000E+01
 -10.030  0.0000E+00  0.8000E+01
 -10.020  0.0000E+00  0.8000E+01
 -10.010  0.0000E+00  0.8000E+01
 -10.000  0.0000E+00  0.8000E+01
  -9.990  0.0000E+00  0.8000E+01
  -9.980  0.0000E+00  0.8000E+01
  -9.970  0.0000E+00  0.8000E+01
  -9.960  0.0000E+00  0.8000E+01
  -9.950  0.0000E+00  0.8000E+01
  -9.940  0.0000E+00  0.8000E+01
  -9.930  0.0000E+00  0.8000E+01
  -9.920  0.0000E+00  0.8000E+01
  -9.910  0.0000E+00  0.8000E+01
  -9.900  0.0000E+00  0.8000E+01
  -9.890  0.0000E+00  0.8000E+01
  -9.880  0.0000E+00  0.8000E+01
  -9.870  0.0000E+00  0.8000E+01
  -9.860  0.0000E+00  0.8000E+01
  -9.850  0.0000E+00  0.8000E+01
  -9.840  0.0000E+00  0.8000E+01
  -9.830  0.0000E+00  0.8000E+01
  -9.820  0.0000E+00  0.8000E+01
  -9.810  0.0000E+00  0.8000E+01
  -9.800  0.0000E+00  0.8000E+01
  -9.790  0.0000E+00  0.8000E+01
  -9.780  0.0000E+00  0.8000E+01
  -9.770  0.0000E+00  0.8000E+01
  -9.760  0.0000E+00  0.8000E+01
  -9.750  0.0000E+00  0.8000E+01
  -9.740  0.0000E+00  0.8000E+01
  -9.730  0.0000E+00  0.8000E+01
  -9.720  0.0000E+00  0.8000E+01
  -9.710  0.0000E+00  0.8000E+01
  -9.700  0.0000E+00  0.8000E+01
  -9.690  0.0000E+00  0.8000E+01
  -9.680  0.0000E+00  0.8000E+01
  -9.670  0.0000E+00  0.8000E+01
  -9.660  0.0000E+00  0.8000E+01
  -9.650  0.0000E+00  0.8000E+01
  -9.640  0.0000E+00  0.8000E+01
  -9.630  0.0000E+00  0.8000E+01
  -9.620  0.0000E+00  0.8000E+01
  -9.610  0.0000E+00  0.8000E+01
  -9.600  0.0000E+00  0.8000E+01
  -9.590  0.0000E+00  0.8000E+01
  -9.580  0.0000E+00  0.8000E+01
  -9.570  0.0000E+00  0.8000E+01
  -9.560  0.0000E+00  0.8000E+01
  -9.550  0.0000E+00  0.8000E+01
  -9.540  0.0000E+00  0.8000E+01
  -9.530  0.0000E+00  0.8000E+01
  -9.520  0.0000E+00  0.8000E+01
  -9.510  0.0000E+00  0.8000E+01
  -9.500  0.0000E+00  0.8000E+01
  -9.490  0.0000E+00  0.8000E+01
  -9.480  0.0000E+00  0.8000E+01
  -9.470  0.0000E+00  0.8000E+01
  -9.460  0.0000E+00  0.8000E+01
  -9.450  0.0000E+00  0.8000E+01
  -9.440  0.0000E+00  0.8000E+01
  -9.430  0.0000E+00  0.8000E+01
  -9.420  0.0000E+00  0.8000E+01
  -9.410  0.0000E+00  0.8000E+01
  -9.400  0.0000E+00  0.8000E+01
  -9.390  0.0000E+00  0.8000E+01
  -9.380  0.0000E+00  0.8000E+01
  -9.370  0.0000E+00  0.8000E+01
  -9.360  0.0000E+00  0.8000E+01
  -9.350  0.0000E+00  0.8000E+01
  -9.340  0.0000E+00  0.8000E+01
  -9.330  0.0000E+00  0.8000E+01
  -9.320  0.0000E+00  0.8000E+01
  -9.310  0.0000E+00  0.8000E+01
  -9.300  0.0000E+00  0.8000E+01
  -9.290  0.0000E+00  0.8000E+01
  -9.280  0.0000E+00  0.8000E+01
  -9.270  0.0000E+00  0.8000E+01
  -9.260  0.0000E+00  0.8000E+01
  -9.250  0.0000E+00  0.8000E+01
  -9.240  0.0000E+00  0.8000E+01
  -9.230  0.0000E+00  0.8000E+01
  -9.220  0.0000E+00  0.8000E+01
  -9.210  0.0000E+00  0.8000E+01
  -9.200  0.0000E+00  0.8000E+01
  -9.190  0.0000E+00  0.8000E+01
  -9.180  0.0000E+00  0.8000E+01
  -9.170  0.0000E+00  0.8000E+01
  -9.160  0.0000E+00  0.8000E+01
  -9.150  0.0000E+00  0.8000E+01
  -9.140  0.0000E+00  0.8000E+01
  -9.130  0.0000E+00  0.8000E+01
  -9.120  0.0000E+00  0.8000E+01
  -9.110  0.0000E+00  0.8000E+01
  -9.100  0.0000E+00  0.8000E+01
  -9.090  0.0000E+00  0.8000E+01
  -9.080  0.0000E+00  0.8000E+01
  -9.070  0.0000E+00  0.8000E+01
  -9.060  0.0000E+00  0.8000E+01
  -9.050  0.0000E+00  0.8000E+01
  -9.040  0.0000E+00  0.8000E+01
  -9.030  0.0000E+00  0.8000E+01
  -9.020  0.0000E+00  0.8000E+01
  -9.010  0.0000E+00  0.8000E+01
  -9.000  0.0000E+00  0.8000E+01
  -8.990  0.0000E+00  0.8000E+01
  -8.980  0.0000E+00  0.8000E+01
  -8.970  0.0000E+00  0.8000E+01
  -8.960  0.0000E+00  0.8000E+01
  -8.950  0.0000E+00  0.8000E+01
  -8.940  0.0000E+00  0.8000E+01
  -8.930  0.0000E+00  0.8000E+01
  -8.920  0.0000E+00  0.8000E+01
  -8.910  0.0000E+00  0.8000E+01
  -8.900  0.0000E+00  0.8000E+01
  -8.890  0.0000E+00  0.8000E+01
  -8.880  0.0000E+00  0.8000E+01
  -8.870  0.0000E+00  0.8000E+01
  -8.860  0.0000E+00  0.8000E+01
  -8.850  0.0000E+00  0.8000E+01
  -8.840  0.0000E+00  0.8000E+01
  -8.830  0.0000E+00  0.8000E+01
  -8.820  0.0000E+00  0.8000E+01
  -8.810  0.0000E+00  0.8000E+01
  -8.800  0.0000E+00  0.8000E+01
  -8.790  0.0000E+00  0.8000E+01
  -8.780  0.0000E+00  0.8000E+01
  -8.770  0.0000E+00  0.8000E+01
  -8.760  0.0000E+00  0.8000E+01
  -8.750  0.0000E+00  0.8000E+01
  -8.740  0.0000E+00  0.8000E+01
  -8.730  0.0000E+00  0.8000E+01
  -8.720  0.0000E+00  0.8000E+01
  -8.710  0.0000E+00  0.8000E+01
  -8.700  0.0000E+00  0.8000E+01
  -8.690  0.0000E+00  0.8000E+01
  -8.680  0.0000E+00  0.8000E+01
  -8.670  0.0000E+00  0.8000E+01
  -8.660  0.0000E+00  0.8000E+01
  -8.650  0.0000E+00  0.8000E+01
  -8.640  0.0000E+00  0.8000E+01
  -8.630  0.0000E+00  0.8000E+01
  -8.620  0.0000E+00  0.8000E+01
  -8.610  0.0000E+00  0.8000E+01
  -8.600  0.0000E+00  0.8000E+01
  -8.590  0.0000E+00  0.8000E+01
  -8.580  0.0000E+00  0.8000E+01
  -8.570  0.0000E+00  0.8000E+01
  -8.560  0.0000E+00  0.8000E+01
  -8.550  0.0000E+00  0.8000E+01
  -8.540  0.0000E+00  0.8000E+01
  -8.530  0.0000E+00  0.8000E+01
  -8.520  0.0000E+00  0.8000E+01
  -8.510  0.0000E+00  0.8000E+01
  -8.500  0.0000E+00  0.8000E+01
  -8.490  0.0000E+00  0.8000E+01
  -8.480  0.0000E+00  0.8000E+01
  -8.470  0.0000E+00  0.8000E+01
  -8.460  0.0000E+00  0.8000E+01
  -8.450  0.0000E+00  0.8000E+01
  -8.440  0.0000E+00  0.8000E+01
  -8.430  0.0000E+00  0.8000E+01
  -8.420  0.0000E+00  0.8000E+01
  -8.410  0.0000E+00  0.8000E+01
  -8.400  0.0000E+00  0.8000E+01
  -8.390  0.0000E+00  0.8000E+01
  -8.380  0.0000E+00  0.8000E+01
  -8.370  0.0000E+00  0.8000E+01
  -8.360  0.0000E+00  0.8000E+01
  -8.350  0.0000E+00  0.8000E+01
  -8.340  0.0000E+00  0.8000E+01
  -8.330  0.0000E+00  0.8000E+01
  -8.320  0.0000E+00  0.8000E+01
  -8.310  0.0000E+00  0.8000E+01
  -8.300  0.0000E+00  0.8000E+01
  -8.290  0.0000E+00  0.8000E+01
  -8.280  0.0000E+00  0.8000E+01
  -8.270  0.0000E+00  0.8000E+01
  -8.260  0.0000E+00  0.8000E+01
  -8.250  0.0000E+00  0.8000E+01
  -8.240  0.0000E+00  0.8000E+01
  -8.230  0.0000E+00  0.8000E+01
  -8.220  0.0000E+00  0.8000E+01
  -8.210  0.0000E+00  0.8000E+01
  -8.200  0.0000E+00  0.8000E+01
  -8.190  0.0000E+00  0.8000E+01
  -8.180  0.0000E+00  0.8000E+01
  -8.170  0.0000E+00  0.8000E+01
  -8.160  0.0000E+00  0.8000E+01
  -8.150  0.0000E+00  0.8000E+01
  -8.140  0.0000E+00  0.8000E+01
  -8.130  0.0000E+00  0.8000E+01
  -8.120  0.0000E+00  0.8000E+01
  -8.110  0.0000E+00  0.8000E+01
  -8.100  0.0000E+00  0.8000E+01
  -8.090  0.0000E+00  0.8000E+01
  -8.080  0.0000E+00  0.8000E+01
  -8.070  0.0000E+00  0.8000E+01
  -8.060  0.0000E+00  0.8000E+01
  -8.050  0.0000E+00  0.8000E+01
  -8.040  0.0000E+00  0.8000E+01
  -8.030  0.0000E+00  0.8000E+01
  -8.020  0.0000E+00  0.8000E+01
  -8.010  0.0000E+00  0.8000E+01
  -8.000  0.0000E+00  0.8000E+01
  -7.990  0.0000E+00  0.8000E+01
  -7.980  0.0000E+00  0.8000E+01
  -7.970  0.0000E+00  0.8000E+01
  -7.960  0.0000E+00  0.8000E+01
  -7.950  0.0000E+00  0.8000E+01
  -7.940  0.0000E+00  0.8000E+01
  -7.930  0.0000E+00  0.8000E+01
  -7.920  0.0000E+00  0.8000E+01
  -7.910  0.0000E+00  0.8000E+01
  -7.900  0.0000E+00  0.8000E+01
  -7.890  0.0000E+00  0.8000E+01
  -7.880  0.0000E+00  0.8000E+01
  -7.870  0.0000E+00  0.8000E+01
  -7.860  0.0000E+00  0.8000E+01
  -7.850  0.0000E+00  0.8000E+01
  -7.840  0.0000E+00  0.8000E+01
  -7.830  0.0000E+00  0.8000E+01
  -7.820  0.0000E+00  0.8000E+01
  -7.810  0.0000E+00  0.8000E+01
  -7.800  0.0000E+00  0.8000E+01
  -7.790  0.0000E+00  0.8000E+01
  -7.780  0.0000E+00  0.8000E+01
  -7.770  0.0000E+00  0.8000E+01
  -7.760  0.0000E+00  0.8000E+01
  -7.750  0.0000E+00  0.8000E+01
  -7.740  0.0000E+00  0.8000E+01
  -7.730  0.0000E+00  0.8000E+01
  -7.720  0.0000E+00  0.8000E+01
  -7.710  0.0000E+00  0.8000E+01
  -7.700  0.0000E+00  0.8000E+01
  -7.690  0.0000E+00  0.8000E+01
  -7.680  0.0000E+00  0.8000E+01
  -7.670  0.0000E+00  0.8000E+01
  -7.660  0.0000E+00  0.8000E+01
  -7.650  0.0000E+00  0.8000E+01
  -7.640  0.0000E+00  0.8000E+01
  -7.630  0.0000E+00  0.8000E+01
  -7.620  0.0000E+00  0.8000E+01
  -7.610  0.0000E+00  0.8000E+01
  -7.600  0.0000E+00  0.8000E+01
  -7.590  0.0000E+00  0.8000E+01
  -7.580  0.0000E+00  0.8000E+01
  -7.570  0.0000E+00  0.8000E+01
  -7.560  0.0000E+00  0.8000E+01
  -7.550  0.0000E+00  0.8000E+01
  -7.540  0.0000E+00  0.8000E+01
  -7.530  0.0000E+00  0.8000E+01
  -7.520  0.0000E+00  0.8000E+01
  -7.510  0.0000E+00  0.8000E+01
  -7.500  0.0000E+00  0.8000E+01
  -7.490  0.0000E+00  0.8000E+01
  -7.480  0.0000E+00  0.8000E+01
  -7.470  0.0000E+00  0.8000E+01
  -7.460  0.0000E+00  0.8000E+01
  -7.450  0.0000E+00  0.8000E+01
  -7.440  0.0000E+00  0.8000E+01
  -7.430  0.0000E+00  0.8000E+01
  -7.420  0.0000E+00  0.8000E+01
  -7.410  0.0000E+00  0.8000E+01
  -7.400  0.0000E+00  0.8000E+01
  -7.390  0.0000E+00  0.8000E+01
  -7.380  0.0000E+00  0.8000E+01
  -7.370  0.0000E+00  0.8000E+01
  -7.360  0.0000E+00  0.8000E+01
  -7.350  0.0000E+00  0.8000E+01
  -7.340  0.0000E+00  0.8000E+01
  -7.330  0.0000E+00  0.8000E+01
  -7.320  0.0000E+00  0.8000E+01
  -7.310  0.0000E+00  0.8000E+01
  -7.300  0.0000E+00  0.8000E+01
  -7.290  0.0000E+00  0.8000E+01
  -7.280  0.0000E+00  0.8000E+01
  -7.270  0.0000E+00  0.8000E+01
  -7.260  0.0000E+00  0.8000E+01
  -7.250  0.0000E+00  0.8000E+01
  -7.240  0.0000E+00  0.8000E+01
  -7.230  0.0000E+00  0.8000E+01
  -7.220  0.0000E+00  0.8000E+01
  -7.210  0.0000E+00  0.8000E+01
  -7.200  0.0000E+00  0.8000E+01
  -7.190  0.0000E+00  0.8000E+01
  -7.180  0.0000E+00  0.8000E+01
  -7.170  0.0000E+00  0.8000E+01
  -7.160  0.0000E+00  0.8000E+01
  -7.150  0.0000E+00  0.8000E+01
  -7.140  0.0000E+00  0.8000E+01
  -7.130  0.0000E+00  0.8000E+01
  -7.120  0.0000E+00  0.8000E+01
  -7.110  0.0000E+00  0.8000E+01
  -7.100  0.0000E+00  0.8000E+01
  -7.090  0.0000E+00  0.8000E+01
  -7.080  0.0000E+00  0.8000E+01
  -7.070  0.0000E+00  0.8000E+01
  -7.060  0.0000E+00  0.8000E+01
  -7.050  0.0000E+00  0.8000E+01
  -7.040  0.0000E+00  0.8000E+01
  -7.030  0.0000E+00  0.8000E+01
  -7.020  0.0000E+00  0.8000E+01
  -7.010  0.0000E+00  0.8000E+01
  -7.000  0.0000E+00  0.8000E+01
  -6.990  0.0000E+00  0.8000E+01
  -6.980  0.0000E+00  0.8000E+01
  -6.970  0.0000E+00  0.8000E+01
  -6.960  0.0000E+00  0.8000E+01
  -6.950  0.0000E+00  0.8000E+01
  -6.940  0.0000E+00  0.8000E+01
  -6.930  0.0000E+00  0.8000E+01
  -6.920  0.0000E+00  0.8000E+01
  -6.910  0.0000E+00  0.8000E+01
  -6.900  0.0000E+00  0.8000E+01
  -6.890  0.0000E+00  0.8000E+01
  -6.880  0.0000E+00  0.8000E+01
  -6.870  0.0000E+00  0.8000E+01
  -6.860  0.0000E+00  0.8000E+01
  -6.850  0.0000E+00  0.8000E+01
  -6.840  0.0000E+00  0.8000E+01
  -6.830  0.0000E+00  0.8000E+01
  -6.820  0.0000E+00  0.8000E+01
  -6.810  0.0000E+00  0.8000E+01
  -6.800  0.0000E+00  0.8000E+01
  -6.790  0.0000E+00  0.8000E+01
  -6.780  0.0000E+00  0.8000E+01
  -6.770  0.0000E+00  0.8000E+01
  -6.760  0.0000E+00  0.8000E+01
  -6.750  0.0000E+00  0.8000E+01
  -6.740  0.0000E+00  0.8000E+01
  -6.730  0.0000E+00  0.8000E+01
  -6.720  0.0000E+00  0.8000E+01
  -6.710  0.0000E+00  0.8000E+01
  -6.700  0.0000E+00  0.8000E+01
  -6.690  0.0000E+00  0.8000E+01
  -6.680  0.0000E+00  0.8000E+01
  -6.670  0.0000E+00  0.8000E+01
  -6.660  0.0000E+00  0.8000E+01
  -6.650  0.0000E+00  0.8000E+01
  -6.640  0.0000E+00  0.8000E+01
  -6.630  0.0000E+00  0.8000E+01
  -6.620  0.0000E+00  0.8000E+01
  -6.610  0.0000E+00  0.8000E+01
  -6.600  0.0000E+00  0.8000E+01
  -6.590  0.0000E+00  0.8000E+01
  -6.580  0.0000E+00  0.8000E+01
  -6.570  0.0000E+00  0.8000E+01
  -6.560  0.0000E+00  0.8000E+01
  -6.550  0.0000E+00  0.8000E+01
  -6.540  0.0000E+00  0.8000E+01
  -6.530  0.0000E+00  0.8000E+01
  -6.520  0.0000E+00  0.8000E+01
  -6.510  0.0000E+00  0.8000E+01
  -6.500  0.0000E+00  0.8000E+01
  -6.490  0.0000E+00  0.8000E+01
  -6.480  0.0000E+00  0.8000E+01
  -6.470  0.0000E+00  0.8000E+01
  -6.460  0.0000E+00  0.8000E+01
  -6.450  0.0000E+00  0.8000E+01
  -6.440  0.0000E+00  0.8000E+01
  -6.430  0.0000E+00  0.8000E+01
  -6.420  0.0000E+00  0.8000E+01
  -6.410  0.0000E+00  0.8000E+01
  -6.400  0.0000E+00  0.8000E+01
  -6.390  0.0000E+00  0.8000E+01
  -6.380  0.0000E+00  0.8000E+01
  -6.370  0.0000E+00  0.8000E+01
  -6.360  0.0000E+00  0.8000E+01
  -6.350  0.0000E+00  0.8000E+01
  -6.340  0.0000E+00  0.8000E+01
  -6.330  0.0000E+00  0.8000E+01
  -6.320  0.0000E+00  0.8000E+01
  -6.310  0.0000E+00  0.8000E+01
  -6.300  0.0000E+00  0.8000E+01
  -6.290  0.0000E+00  0.8000E+01
  -6.280  0.0000E+00  0.8000E+01
  -6.270  0.0000E+00  0.8000E+01
  -6.260  0.0000E+00  0.8000E+01
  -6.250  0.0000E+00  0.8000E+01
  -6.240  0.0000E+00  0.8000E+01
  -6.230  0.0000E+00  0.8000E+01
  -6.220  0.0000E+00  0.8000E+01
  -6.210  0.0000E+00  0.8000E+01
  -6.200  0.0000E+00  0.8000E+01
  -6.190  0.0000E+00  0.8000E+01
  -6.180  0.0000E+00  0.8000E+01
  -6.170  0.0000E+00  0.8000E+01
  -6.160  0.0000E+00  0.8000E+01
  -6.150  0.0000E+00  0.8000E+01
  -6.140  0.0000E+00  0.8000E+01
  -6.130  0.0000E+00  0.8000E+01
  -6.120  0.0000E+00  0.8000E+01
  -6.110  0.0000E+00  0.8000E+01
  -6.100  0.0000E+00  0.8000E+01
  -6.090  0.0000E+00  0.8000E+01
  -6.080  0.0000E+00  0.8000E+01
  -6.070  0.0000E+00  0.8000E+01
  -6.060  0.0000E+00  0.8000E+01
  -6.050  0.0000E+00  0.8000E+01
  -6.040  0.0000E+00  0.8000E+01
  -6.030  0.0000E+00  0.8000E+01
  -6.020  0.0000E+00  0.8000E+01
  -6.010  0.0000E+00  0.8000E+01
  -6.000  0.0000E+00  0.8000E+01
  -5.990  0.0000E+00  0.8000E+01
  -5.980  0.0000E+00  0.8000E+01
  -5.970  0.0000E+00  0.8000E+01
  -5.960  0.0000E+00  0.8000E+01
  -5.950  0.0000E+00  0.8000E+01
  -5.940  0.0000E+00  0.8000E+01
  -5.930  0.0000E+00  0.8000E+01
  -5.920  0.0000E+00  0.8000E+01
  -5.910  0.0000E+00  0.8000E+01
  -5.900  0.0000E+00  0.8000E+01
  -5.890  0.0000E+00  0.8000E+01
  -5.880  0.0000E+00  0.8000E+01
  -5.870  0.0000E+00  0.8000E+01
  -5.860  0.0000E+00  0.8000E+01
  -5.850  0.0000E+00  0.8000E+01
  -5.840  0.0000E+00  0.8000E+01
  -5.830  0.0000E+00  0.8000E+01
  -5.820  0.0000E+00  0.8000E+01
  -5.810  0.0000E+00  0.8000E+01
  -5.800  0.0000E+00  0.8000E+01
  -5.790  0.0000E+00  0.8000E+01
  -5.780  0.0000E+00  0.8000E+01
  -5.770  0.0000E+00  0.8000E+01
  -5.760  0.0000E+00  0.8000E+01
  -5.750  0.0000E+00  0.8000E+01
  -5.740  0.0000E+00  0.8000E+01
  -5.730  0.0000E+00  0.8000E+01
  -5.720  0.0000E+00  0.8000E+01
  -5.710  0.0000E+00  0.8000E+01
  -5.700  0.0000E+00  0.8000E+01
  -5.690  0.0000E+00  0.8000E+01
  -5.680  0.0000E+00  0.8000E+01
  -5.670  0.0000E+00  0.8000E+01
  -5.660  0.0000E+00  0.8000E+01
  -5.650  0.0000E+00  0.8000E+01
  -5.640  0.0000E+00  0.8000E+01
  -5.630  0.0000E+00  0.8000E+01
  -5.620  0.0000E+00  0.8000E+01
  -5.610  0.0000E+00  0.8000E+01
  -5.600  0.0000E+00  0.8000E+01
  -5.590  0.0000E+00  0.8000E+01
  -5.580  0.0000E+00  0.8000E+01
  -5.570  0.0000E+00  0.8000E+01
  -5.560  0.0000E+00  0.8000E+01
  -5.550  0.0000E+00  0.8000E+01
  -5.540  0.0000E+00  0.8000E+01
  -5.530  0.0000E+00  0.8000E+01
  -5.520  0.0000E+00  0.8000E+01
  -5.510  0.0000E+00  0.8000E+01
  -5.500  0.0000E+00  0.8000E+01
  -5.490  0.0000E+00  0.8000E+01
  -5.480  0.0000E+00  0.8000E+01
  -5.470  0.0000E+00  0.8000E+01
  -5.460  0.0000E+00  0.8000E+01
  -5.450  0.0000E+00  0.8000E+01
  -5.440  0.0000E+00  0.8000E+01
  -5.430  0.0000E+00  0.8000E+01
  -5.420  0.0000E+00  0.8000E+01
  -5.410  0.0000E+00  0.8000E+01
  -5.400  0.0000E+00  0.8000E+01
  -5.390  0.0000E+00  0.8000E+01
  -5.380  0.0000E+00  0.8000E+01
  -5.370  0.0000E+00  0.8000E+01
  -5.360  0.0000E+00  0.8000E+01
  -5.350  0.0000E+00  0.8000E+01
  -5.340  0.0000E+00  0.8000E+01
  -5.330  0.0000E+00  0.8000E+01
  -5.320  0.0000E+00  0.8000E+01
  -5.310  0.0000E+00  0.8000E+01
  -5.300  0.0000E+00  0.8000E+01
  -5.290  0.0000E+00  0.8000E+01
  -5.280  0.0000E+00  0.8000E+01
  -5.270  0.0000E+00  0.8000E+01
  -5.260  0.0000E+00  0.8000E+01
  -5.250  0.0000E+00  0.8000E+01
  -5.240  0.0000E+00  0.8000E+01
  -5.230  0.0000E+00  0.8000E+01
  -5.220  0.0000E+00  0.8000E+01
  -5.210  0.0000E+00  0.8000E+01
  -5.200  0.0000E+00  0.8000E+01
  -5.190  0.0000E+00  0.8000E+01
  -5.180  0.0000E+00  0.8000E+01
  -5.170  0.0000E+00  0.8000E+01
  -5.160  0.0000E+00  0.8000E+01
  -5.150  0.0000E+00  0.8000E+01
  -5.140  0.0000E+00  0.8000E+01
  -5.130  0.0000E+00  0.8000E+01
  -5.120  0.0000E+00  0.8000E+01
  -5.110  0.0000E+00  0.8000E+01
  -5.100  0.0000E+00  0.8000E+01
  -5.090  0.0000E+00  0.8000E+01
  -5.080  0.0000E+00  0.8000E+01
  -5.070  0.0000E+00  0.8000E+01
  -5.060  0.0000E+00  0.8000E+01
  -5.050  0.0000E+00  0.8000E+01
  -5.040  0.0000E+00  0.8000E+01
  -5.030  0.0000E+00  0.8000E+01
  -5.020  0.0000E+00  0.8000E+01
  -5.010  0.0000E+00  0.8000E+01
  -5.000  0.0000E+00  0.8000E+01
  -4.990  0.0000E+00  0.8000E+01
  -4.980  0.0000E+00  0.8000E+01
  -4.970  0.0000E+00  0.8000E+01
  -4.960  0.0000E+00  0.8000E+01
  -4.950  0.0000E+00  0.8000E+01
  -4.940  0.0000E+00  0.8000E+01
  -4.930  0.0000E+00  0.8000E+01
  -4.920  0.0000E+00  0.8000E+01
  -4.910  0.0000E+00  0.8000E+01
  -4.900  0.0000E+00  0.8000E+01
  -4.890  0.0000E+00  0.8000E+01
  -4.880  0.0000E+00  0.8000E+01
  -4.870  0.0000E+00  0.8000E+01
  -4.860  0.0000E+00  0.8000E+01
  -4.850  0.0000E+00  0.8000E+01
  -4.840  0.0000E+00  0.8000E+01
  -4.830  0.0000E+00  0.8000E+01
  -4.820  0.0000E+00  0.8000E+01
  -4.810  0.0000E+00  0.8000E+01
  -4.800  0.0000E+00  0.8000E+01
  -4.790  0.0000E+00  0.8000E+01
  -4.780  0.0000E+00  0.8000E+01
  -4.770  0.0000E+00  0.8000E+01
  -4.760  0.0000E+00  0.8000E+01
  -4.750  0.0000E+00  0.8000E+01
  -4.740  0.0000E+00  0.8000E+01
  -4.730  0.0000E+00  0.8000E+01
  -4.720  0.0000E+00  0.8000E+01
  -4.710  0.0000E+00  0.8000E+01
  -4.700  0.0000E+00  0.8000E+01
  -4.690  0.0000E+00  0.8000E+01
  -4.680  0.0000E+00  0.8000E+01
  -4.670  0.0000E+00  0.8000E+01
  -4.660  0.0000E+00  0.8000E+01
  -4.650  0.0000E+00  0.8000E+01
  -4.640  0.0000E+00  0.8000E+01
  -4.630  0.0000E+00  0.8000E+01
  -4.620  0.0000E+00  0.8000E+01
  -4.610  0.0000E+00  0.8000E+01
  -4.600  0.0000E+00  0.8000E+01
  -4.590  0.0000E+00  0.8000E+01
  -4.580  0.0000E+00  0.8000E+01
  -4.570  0.0000E+00  0.8000E+01
  -4.560  0.0000E+00  0.8000E+01
  -4.550  0.0000E+00  0.8000E+01
  -4.540  0.0000E+00  0.8000E+01
  -4.530  0.0000E+00  0.8000E+01
  -4.520  0.0000E+00  0.8000E+01
  -4.510  0.0000E+00  0.8000E+01
  -4.500  0.0000E+00  0.8000E+01
  -4.490  0.0000E+00  0.8000E+01
  -4.480  0.0000E+00  0.8000E+01
  -4.470  0.0000E+00  0.8000E+01
  -4.460  0.0000E+00  0.8000E+01
  -4.450  0.0000E+00  0.8000E+01
  -4.440  0.0000E+00  0.8000E+01
  -4.430  0.0000E+00  0.8000E+01
  -4.420  0.0000E+00  0.8000E+01
  -4.410  0.0000E+00  0.8000E+01
  -4.400  0.0000E+00  0.8000E+01
  -4.390  0.0000E+00  0.8000E+01
  -4.380  0.0000E+00  0.8000E+01
  -4.370  0.0000E+00  0.8000E+01
  -4.360  0.0000E+00  0.8000E+01
  -4.350  0.0000E+00  0.8000E+01
  -4.340  0.0000E+00  0.8000E+01
  -4.330  0.0000E+00  0.8000E+01
  -4.320  0.0000E+00  0.8000E+01
  -4.310  0.0000E+00  0.8000E+01
  -4.300  0.0000E+00  0.8000E+01
  -4.290  0.0000E+00  0.8000E+01
  -4.280  0.0000E+00  0.8000E+01
  -4.270  0.0000E+00  0.8000E+01
  -4.260  0.0000E+00  0.8000E+01
  -4.250  0.0000E+00  0.8000E+01
  -4.240  0.0000E+00  0.8000E+01
  -4.230  0.0000E+00  0.8000E+01
  -4.220  0.0000E+00  0.8000E+01
  -4.210  0.0000E+00  0.8000E+01
  -4.200  0.0000E+00  0.8000E+01
  -4.190  0.0000E+00  0.8000E+01
  -4.180  0.0000E+00  0.8000E+01
  -4.170  0.0000E+00  0.8000E+01
  -4.160  0.0000E+00  0.8000E+01
  -4.150  0.0000E+00  0.8000E+01
  -4.140  0.0000E+00  0.8000E+01
  -4.130  0.0000E+00  0.8000E+01
  -4.120  0.0000E+00  0.8000E+01
  -4.110  0.0000E+00  0.8000E+01
  -4.100  0.0000E+00  0.8000E+01
  -4.090  0.0000E+00  0.8000E+01
  -4.080  0.0000E+00  0.8000E+01
  -4.070  0.0000E+00  0.8000E+01
  -4.060  0.0000E+00  0.8000E+01
  -4.050  0.0000E+00  0.8000E+01
  -4.040  0.0000E+00  0.8000E+01
  -4.030  0.0000E+00  0.8000E+01
  -4.020  0.0000E+00  0.8000E+01
  -4.010  0.0000E+00  0.8000E+01
  -4.000  0.0000E+00  0.8000E+01
  -3.990  0.0000E+00  0.8000E+01
  -3.980  0.0000E+00  0.8000E+01
  -3.970  0.0000E+00  0.8000E+01
  -3.960  0.0000E+00  0.8000E+01
  -3.950  0.0000E+00  0.8000E+01
  -3.940  0.0000E+00  0.8000E+01
  -3.930  0.0000E+00  0.8000E+01
  -3.920  0.0000E+00  0.8000E+01
  -3.910  0.1042E+01  0.8003E+01
  -3.900  0.1653E+01  0.8017E+01
  -3.890  0.2920E+01  0.8042E+01
  -3.880  0.3101E+01  0.8073E+01
  -3.870  0.3026E+01  0.8104E+01
  -3.860  0.3114E+01  0.8134E+01
  -3.850  0.3153E+01  0.8165E+01
  -3.840  0.3112E+01  0.8197E+01
  -3.830  0.3185E+01  0.8228E+01
  -3.820  0.3161E+01  0.8260E+01
  -3.810  0.3220E+01  0.8292E+01
  -3.800  0.3232E+01  0.8324E+01
  -3.790  0.3263E+01  0.8357E+01
  -3.780  0.3231E+01  0.8389E+01
  -3.770  0.3319E+01  0.8422E+01
  -3.760  0.3344E+01  0.8455E+01
  -3.750  0.3395E+01  0.8489E+01
  -3.740  0.3328E+01  0.8522E+01
  -3.730  0.3394E+01  0.8556E+01
  -3.720  0.3484E+01  0.8591E+01
  -3.710  0.3500E+01  0.8625E+01
  -3.700  0.3516E+01  0.8661E+01
  -3.690  0.3511E+01  0.8696E+01
  -3.680  0.3576E+01  0.8731E+01
  -3.670  0.3660E+01  0.8767E+01
  -3.660  0.3699E+01  0.8804E+01
  -3.650  0.3724E+01  0.8841E+01
  -3.640  0.3749E+01  0.8879E+01
  -3.630  0.3807E+01  0.8916E+01
  -3.620  0.3890E+01  0.8955E+01
  -3.610  0.3968E+01  0.8994E+01
  -3.600  0.4029E+01  0.9034E+01
  -3.590  0.4068E+01  0.9075E+01
  -3.580  0.4126E+01  0.9116E+01
  -3.570  0.4239E+01  0.9157E+01
  -3.560  0.4371E+01  0.9200E+01
  -3.550  0.4469E+01  0.9245E+01
  -3.540  0.4579E+01  0.9290E+01
  -3.530  0.4718E+01  0.9336E+01
  -3.520  0.6639E+01  0.9390E+01
  -3.510  0.6682E+01  0.9455E+01
  -3.500  0.8360E+01  0.9531E+01
  -3.490  0.8816E+01  0.9616E+01
  -3.480  0.9366E+01  0.9707E+01
  -3.470  0.1048E+02  0.9805E+01
  -3.460  0.1062E+02  0.9914E+01
  -3.450  0.1043E+02  0.1002E+02
  -3.440  0.9199E+01  0.1012E+02
  -3.430  0.8543E+01  0.1021E+02
  -3.420  0.8120E+01  0.1029E+02
  -3.410  0.7853E+01  0.1037E+02
  -3.400  0.7602E+01  0.1045E+02
  -3.390  0.7381E+01  0.1052E+02
  -3.380  0.7237E+01  0.1059E+02
  -3.370  0.7126E+01  0.1067E+02
  -3.360  0.6974E+01  0.1074E+02
  -3.350  0.6862E+01  0.1081E+02
  -3.340  0.6734E+01  0.1087E+02
  -3.330  0.6626E+01  0.1094E+02
  -3.320  0.6614E+01  0.1101E+02
  -3.310  0.6551E+01  0.1107E+02
  -3.300  0.6490E+01  0.1114E+02
  -3.290  0.6384E+01  0.1120E+02
  -3.280  0.6294E+01  0.1127E+02
  -3.270  0.6362E+01  0.1133E+02
  -3.260  0.6372E+01  0.1139E+02
  -3.250  0.6241E+01  0.1146E+02
  -3.240  0.5946E+01  0.1152E+02
  -3.230  0.5808E+01  0.1158E+02
  -3.220  0.5731E+01  0.1163E+02
  -3.210  0.5792E+01  0.1169E+02
  -3.200  0.5826E+01  0.1175E+02
  -3.190  0.5856E+01  0.1181E+02
  -3.180  0.5914E+01  0.1187E+02
  -3.170  0.5968E+01  0.1193E+02
  -3.160  0.6093E+01  0.1199E+02
  -3.150  0.6176E+01  0.1205E+02
  -3.140  0.6325E+01  0.1211E+02
  -3.130  0.6462E+01  0.1217E+02
  -3.120  0.6651E+01  0.1224E+02
  -3.110  0.6933E+01  0.1231E+02
  -3.100  0.7343E+01  0.1238E+02
  -3.090  0.8432E+01  0.1246E+02
  -3.080  0.8408E+01  0.1254E+02
  -3.070  0.8793E+01  0.1263E+02
  -3.060  0.7549E+01  0.1271E+02
  -3.050  0.6797E+01  0.1278E+02
  -3.040  0.6303E+01  0.1285E+02
  -3.030  0.6009E+01  0.1291E+02
  -3.020  0.5699E+01  0.1297E+02
  -3.010  0.5502E+01  0.1302E+02
  -3.000  0.5301E+01  0.1308E+02
  -2.990  0.5107E+01  0.1313E+02
  -2.980  0.4947E+01  0.1318E+02
  -2.970  0.4827E+01  0.1323E+02
  -2.960  0.4704E+01  0.1328E+02
  -2.950  0.4584E+01  0.1332E+02
  -2.940  0.4461E+01  0.1337E+02
  -2.930  0.4422E+01  0.1341E+02
  -2.920  0.4272E+01  0.1346E+02
  -2.910  0.4243E+01  0.1350E+02
  -2.900  0.4078E+01  0.1354E+02
  -2.890  0.3800E+01  0.1358E+02
  -2.880  0.3647E+01  0.1362E+02
  -2.870  0.3542E+01  0.1365E+02
  -2.860  0.3528E+01  0.1369E+02
  -2.850  0.3507E+01  0.1372E+02
  -2.840  0.3502E+01  0.1376E+02
  -2.830  0.3511E+01  0.1379E+02
  -2.820  0.3572E+01  0.1383E+02
  -2.810  0.3615E+01  0.1386E+02
  -2.800  0.3648E+01  0.1390E+02
  -2.790  0.4250E+01  0.1394E+02
  -2.780  0.5023E+01  0.1399E+02
  -2.770  0.5222E+01  0.1404E+02
  -2.760  0.5525E+01  0.1409E+02
  -2.750  0.6888E+01  0.1415E+02
  -2.740  0.8488E+01  0.1423E+02
  -2.730  0.1040E+02  0.1432E+02
  -2.720  0.1456E+02  0.1446E+02
  -2.710  0.6491E+01  0.1454E+02
  -2.700  0.1178E+02  0.1462E+02
  -2.690  0.3358E+01  0.1471E+02
  -2.680  0.1826E+01  0.1473E+02
  -2.670  0.1839E+01  0.1475E+02
  -2.660  0.1846E+01  0.1477E+02
  -2.650  0.1872E+01  0.1479E+02
  -2.640  0.1864E+01  0.1480E+02
  -2.630  0.1825E+01  0.1482E+02
  -2.620  0.1794E+01  0.1484E+02
  -2.610  0.1793E+01  0.1486E+02
  -2.600  0.1804E+01  0.1488E+02
  -2.590  0.1818E+01  0.1489E+02
  -2.580  0.1831E+01  0.1491E+02
  -2.570  0.1838E+01  0.1493E+02
  -2.560  0.1830E+01  0.1495E+02
  -2.550  0.1814E+01  0.1497E+02
  -2.540  0.1815E+01  0.1499E+02
  -2.530  0.1968E+01  0.1501E+02
  -2.520  0.2145E+01  0.1503E+02
  -2.510  0.2179E+01  0.1505E+02
  -2.500  0.2251E+01  0.1507E+02
  -2.490  0.2346E+01  0.1509E+02
  -2.480  0.2333E+01  0.1512E+02
  -2.470  0.2276E+01  0.1514E+02
  -2.460  0.2282E+01  0.1516E+02
  -2.450  0.2305E+01  0.1518E+02
  -2.440  0.2348E+01  0.1521E+02
  -2.430  0.2390E+01  0.1523E+02
  -2.420  0.2401E+01  0.1526E+02
  -2.410  0.2388E+01  0.1528E+02
  -2.400  0.2383E+01  0.1530E+02
  -2.390  0.2415E+01  0.1533E+02
  -2.380  0.2455E+01  0.1535E+02
  -2.370  0.2481E+01  0.1538E+02
  -2.360  0.2511E+01  0.1540E+02
  -2.350  0.2516E+01  0.1543E+02
  -2.340  0.2523E+01  0.1545E+02
  -2.330  0.2535E+01  0.1548E+02
  -2.320  0.2548E+01  0.1550E+02
  -2.310  0.2557E+01  0.1553E+02
  -2.300  0.2580E+01  0.1555E+02
  -2.290  0.2611E+01  0.1558E+02
  -2.280  0.2646E+01  0.1561E+02
  -2.270  0.2683E+01  0.1563E+02
  -2.260  0.2702E+01  0.1566E+02
  -2.250  0.2698E+01  0.1569E+02
  -2.240  0.2704E+01  0.1571E+02
  -2.230  0.2721E+01  0.1574E+02
  -2.220  0.2739E+01  0.1577E+02
  -2.210  0.2765E+01  0.1579E+02
  -2.200  0.2794E+01  0.1582E+02
  -2.190  0.2831E+01  0.1585E+02
  -2.180  0.2854E+01  0.1588E+02
  -2.170  0.2862E+01  0.1591E+02
  -2.160  0.2880E+01  0.1594E+02
  -2.150  0.2902E+01  0.1597E+02
  -2.140  0.2922E+01  0.1599E+02
  -2.130  0.2952E+01  0.1602E+02
  -2.120  0.2980E+01  0.1605E+02
  -2.110  0.3002E+01  0.1608E+02
  -2.100  0.3028E+01  0.1611E+02
  -2.090  0.3044E+01  0.1614E+02
  -2.080  0.3062E+01  0.1617E+02
  -2.070  0.3093E+01  0.1621E+02
  -2.060  0.3114E+01  0.1624E+02
  -2.050  0.3133E+01  0.1627E+02
  -2.040  0.3155E+01  0.1630E+02
  -2.030  0.3197E+01  0.1633E+02
  -2.020  0.3244E+01  0.1636E+02
  -2.010  0.3278E+01  0.1640E+02
  -2.000  0.3295E+01  0.1643E+02
  -1.990  0.3291E+01  0.1646E+02
  -1.980  0.3305E+01  0.1649E+02
  -1.970  0.3349E+01  0.1653E+02
  -1.960  0.3389E+01  0.1656E+02
  -1.950  0.3420E+01  0.1660E+02
  -1.940  0.3452E+01  0.1663E+02
  -1.930  0.3479E+01  0.1666E+02
  -1.920  0.3515E+01  0.1670E+02
  -1.910  0.3561E+01  0.1673E+02
  -1.900  0.3595E+01  0.1677E+02
  -1.890  0.3611E+01  0.1681E+02
  -1.880  0.3627E+01  0.1684E+02
  -1.870  0.3652E+01  0.1688E+02
  -1.860  0.3705E+01  0.1692E+02
  -1.850  0.3762E+01  0.1695E+02
  -1.840  0.3804E+01  0.1699E+02
  -1.830  0.3829E+01  0.1703E+02
  -1.820  0.3850E+01  0.1707E+02
  -1.810  0.3885E+01  0.1711E+02
  -1.800  0.3927E+01  0.1715E+02
  -1.790  0.3973E+01  0.1718E+02
  -1.780  0.4020E+01  0.1722E+02
  -1.770  0.4059E+01  0.1727E+02
  -1.760  0.4107E+01  0.1731E+02
  -1.750  0.4156E+01  0.1735E+02
  -1.740  0.4208E+01  0.1739E+02
  -1.730  0.4254E+01  0.1743E+02
  -1.720  0.4290E+01  0.1747E+02
  -1.710  0.4328E+01  0.1752E+02
  -1.700  0.4380E+01  0.1756E+02
  -1.690  0.4433E+01  0.1760E+02
  -1.680  0.4500E+01  0.1765E+02
  -1.670  0.4552E+01  0.1769E+02
  -1.660  0.4600E+01  0.1774E+02
  -1.650  0.4667E+01  0.1779E+02
  -1.640  0.4735E+01  0.1783E+02
  -1.630  0.4804E+01  0.1788E+02
  -1.620  0.4861E+01  0.1793E+02
  -1.610  0.4922E+01  0.1798E+02
  -1.600  0.4999E+01  0.1803E+02
  -1.590  0.5065E+01  0.1808E+02
  -1.580  0.5134E+01  0.1813E+02
  -1.570  0.5204E+01  0.1818E+02
  -1.560  0.5290E+01  0.1823E+02
  -1.550  0.5987E+01  0.1829E+02
  -1.540  0.7063E+01  0.1835E+02
  -1.530  0.9157E+01  0.1843E+02
  -1.520  0.1023E+02  0.1853E+02
  -1.510  0.1012E+02  0.1863E+02
  -1.500  0.9628E+01  0.1873E+02
  -1.490  0.8854E+01  0.1882E+02
  -1.480  0.8706E+01  0.1891E+02
  -1.470  0.1018E+02  0.1901E+02
  -1.460  0.1128E+02  0.1911E+02
  -1.450  0.1361E+02  0.1923E+02
  -1.440  0.1308E+02  0.1936E+02
  -1.430  0.1272E+02  0.1949E+02
  -1.420  0.1233E+02  0.1962E+02
  -1.410  0.1200E+02  0.1974E+02
  -1.400  0.1200E+02  0.1986E+02
  -1.390  0.1237E+02  0.1998E+02
  -1.380  0.1260E+02  0.2011E+02
  -1.370  0.1250E+02  0.2023E+02
  -1.360  0.1238E+02  0.2036E+02
  -1.350  0.1272E+02  0.2048E+02
  -1.340  0.1299E+02  0.2061E+02
  -1.330  0.1398E+02  0.2075E+02
  -1.320  0.1407E+02  0.2089E+02
  -1.310  0.1258E+02  0.2102E+02
  -1.300  0.1199E+02  0.2115E+02
  -1.290  0.1182E+02  0.2126E+02
  -1.280  0.1215E+02  0.2138E+02
  -1.270  0.1198E+02  0.2150E+02
  -1.260  0.1363E+02  0.2162E+02
  -1.250  0.1388E+02  0.2176E+02
  -1.240  0.1228E+02  0.2189E+02
  -1.230  0.1110E+02  0.2201E+02
  -1.220  0.1126E+02  0.2213E+02
  -1.210  0.1071E+02  0.2224E+02
  -1.200  0.1019E+02  0.2234E+02
  -1.190  0.1017E+02  0.2245E+02
  -1.180  0.1069E+02  0.2255E+02
  -1.170  0.1155E+02  0.2266E+02
  -1.160  0.1144E+02  0.2278E+02
  -1.150  0.1142E+02  0.2289E+02
  -1.140  0.1008E+02  0.2300E+02
  -1.130  0.9741E+01  0.2310E+02
  -1.120  0.1051E+02  0.2320E+02
  -1.110  0.1040E+02  0.2330E+02
  -1.100  0.1019E+02  0.2341E+02
  -1.090  0.1017E+02  0.2351E+02
  -1.080  0.9770E+01  0.2361E+02
  -1.070  0.9469E+01  0.2370E+02
  -1.060  0.9478E+01  0.2380E+02
  -1.050  0.9393E+01  0.2389E+02
  -1.040  0.9170E+01  0.2399E+02
  -1.030  0.9137E+01  0.2408E+02
  -1.020  0.9170E+01  0.2417E+02
  -1.010  0.9063E+01  0.2426E+02
  -1.000  0.8925E+01  0.2435E+02
  -0.990  0.8979E+01  0.2444E+02
  -0.980  0.8942E+01  0.2453E+02
  -0.970  0.8760E+01  0.2462E+02
  -0.960  0.8790E+01  0.2471E+02
  -0.950  0.8791E+01  0.2479E+02
  -0.940  0.8707E+01  0.2488E+02
  -0.930  0.8678E+01  0.2497E+02
  -0.920  0.8702E+01  0.2506E+02
  -0.910  0.8670E+01  0.2514E+02
  -0.900  0.8556E+01  0.2523E+02
  -0.890  0.8638E+01  0.2531E+02
  -0.880  0.8609E+01  0.2540E+02
  -0.870  0.8554E+01  0.2549E+02
  -0.860  0.8733E+01  0.2557E+02
  -0.850  0.8542E+01  0.2566E+02
  -0.840  0.8506E+01  0.2574E+02
  -0.830  0.8634E+01  0.2583E+02
  -0.820  0.8591E+01  0.2592E+02
  -0.810  0.8617E+01  0.2600E+02
  -0.800  0.8727E+01  0.2609E+02
  -0.790  0.8966E+01  0.2618E+02
  -0.780  0.7083E+01  0.2626E+02
  -0.770  0.6247E+01  0.2633E+02
  -0.760  0.6095E+01  0.2639E+02
  -0.750  0.6945E+01  0.2645E+02
  -0.740  0.5843E+01  0.2652E+02
  -0.730  0.4068E+01  0.2657E+02
  -0.720  0.4057E+01  0.2661E+02
  -0.710  0.4387E+01  0.2665E+02
  -0.700  0.4660E+01  0.2670E+02
  -0.690  0.4866E+01  0.2674E+02
  -0.680  0.5065E+01  0.2679E+02
  -0.670  0.5397E+01  0.2684E+02
  -0.660  0.5969E+01  0.2690E+02
  -0.650  0.6245E+01  0.2696E+02
  -0.640  0.5994E+01  0.2702E+02
  -0.630  0.5786E+01  0.2708E+02
  -0.620  0.5843E+01  0.2714E+02
  -0.610  0.6124E+01  0.2720E+02
  -0.600  0.6647E+01  0.2727E+02
  -0.590  0.6605E+01  0.2733E+02
  -0.580  0.6341E+01  0.2740E+02
  -0.570  0.6210E+01  0.2746E+02
  -0.560  0.6107E+01  0.2752E+02
  -0.550  0.6158E+01  0.2758E+02
  -0.540  0.6085E+01  0.2764E+02
  -0.530  0.6068E+01  0.2770E+02
  -0.520  0.5919E+01  0.2776E+02
  -0.510  0.5878E+01  0.2782E+02
  -0.500  0.5842E+01  0.2788E+02
  -0.490  0.5811E+01  0.2794E+02
  -0.480  0.5784E+01  0.2800E+02
  -0.470  0.5689E+01  0.2805E+02
  -0.460  0.5677E+01  0.2811E+02
  -0.450  0.5639E+01  0.2817E+02
  -0.440  0.5608E+01  0.2822E+02
  -0.430  0.5558E+01  0.2828E+02
  -0.420  0.5559E+01  0.2834E+02
  -0.410  0.5521E+01  0.2839E+02
  -0.400  0.5500E+01  0.2845E+02
  -0.390  0.5536E+01  0.2850E+02
  -0.380  0.5160E+01  0.2856E+02
  -0.370  0.4692E+01  0.2860E+02
  -0.360  0.4177E+01  0.2865E+02
  -0.350  0.4252E+01  0.2869E+02
  -0.340  0.4230E+01  0.2873E+02
  -0.330  0.4196E+01  0.2877E+02
  -0.320  0.3557E+01  0.2881E+02
  -0.310  0.3208E+01  0.2885E+02
  -0.300  0.3032E+01  0.2888E+02
  -0.290  0.3073E+01  0.2891E+02
  -0.280  0.3118E+01  0.2894E+02
  -0.270  0.3158E+01  0.2897E+02
  -0.260  0.3210E+01  0.2900E+02
  -0.250  0.3259E+01  0.2903E+02
  -0.240  0.3307E+01  0.2907E+02
  -0.230  0.3361E+01  0.2910E+02
  -0.220  0.3417E+01  0.2913E+02
  -0.210  0.3478E+01  0.2917E+02
  -0.200  0.3535E+01  0.2920E+02
  -0.190  0.3601E+01  0.2924E+02
  -0.180  0.3667E+01  0.2928E+02
  -0.170  0.3737E+01  0.2931E+02
  -0.160  0.3812E+01  0.2935E+02
  -0.150  0.3891E+01  0.2939E+02
  -0.140  0.3975E+01  0.2943E+02
  -0.130  0.4061E+01  0.2947E+02
  -0.120  0.4159E+01  0.2951E+02
  -0.110  0.4260E+01  0.2955E+02
  -0.100  0.4366E+01  0.2960E+02
  -0.090  0.4479E+01  0.2964E+02
  -0.080  0.4609E+01  0.2968E+02
  -0.070  0.4742E+01  0.2973E+02
  -0.060  0.4885E+01  0.2978E+02
  -0.050  0.5046E+01  0.2983E+02
  -0.040  0.5227E+01  0.2988E+02
  -0.030  0.5413E+01  0.2993E+02
  -0.020  0.5623E+01  0.2999E+02
  -0.010  0.5884E+01  0.3005E+02
   0.000  0.6153E+01  0.3011E+02
   0.010  0.6471E+01  0.3017E+02
   0.020  0.6874E+01  0.3024E+02
   0.030  0.7344E+01  0.3031E+02
   0.040  0.7968E+01  0.3038E+02
   0.050  0.9134E+01  0.3047E+02
   0.060  0.1002E+02  0.3056E+02
   0.070  0.1062E+02  0.3067E+02
   0.080  0.1093E+02  0.3078E+02
   0.090  0.9755E+01  0.3088E+02
   0.100  0.9510E+01  0.3098E+02
   0.110  0.9603E+01  0.3107E+02
   0.120  0.9969E+01  0.3117E+02
   0.130  0.1102E+02  0.3127E+02
   0.140  0.1177E+02  0.3139E+02
   0.150  0.1131E+02  0.3151E+02
   0.160  0.9449E+01  0.3161E+02
   0.170  0.7544E+01  0.3170E+02
   0.180  0.5175E+01  0.3176E+02
   0.190  0.4812E+01  0.3181E+02
   0.200  0.4521E+01  0.3186E+02
   0.210  0.4352E+01  0.3190E+02
   0.220  0.4098E+01  0.3194E+02
   0.230  0.2255E+01  0.3198E+02
   0.240  0.1020E+01  0.3200E+02
   0.250  0.0000E+00  0.3200E+02
   0.260  0.0000E+00  0.3200E+02
   0.270  0.0000E+00  0.3200E+02
   0.280  0.0000E+00  0.3200E+02
   0.290  0.0000E+00  0.3200E+02
   0.300  0.0000E+00  0.3200E+02
   0.310  0.0000E+00  0.3200E+02
   0.320  0.0000E+00  0.3200E+02
   0.330  0.0000E+00  0.3200E+02
   0.340  0.0000E+00  0.3200E+02
   0.350  0.0000E+00  0.3200E+02
   0.360  0.0000E+00  0.3200E+02
   0.370  0.0000E+00  0.3200E+02
   0.380  0.0000E+00  0.3200E+02
   0.390  0.0000E+00  0.3200E+02
   0.400  0.0000E+00  0.3200E+02
   0.410  0.0000E+00  0.3200E+02
   0.420  0.0000E+00  0.3200E+02
   0.430  0.0000E+00  0.3200E+02
   0.440  0.0000E+00  0.3200E+02
   0.450  0.0000E+00  0.3200E+02
   0.460  0.0000E+00  0.3200E+02
   0.470  0.0000E+00  0.3200E+02
   0.480  0.0000E+00  0.3200E+02
   0.490  0.0000E+00  0.3200E+02
   0.500  0.0000E+00  0.3200E+02
   0.510  0.0000E+00  0.3200E+02
   0.520  0.0000E+00  0.3200E+02
   0.530  0.0000E+00  0.3200E+02
   0.540  0.0000E+00  0.3200E+02
   0.550  0.0000E+00  0.3200E+02
   0.560  0.0000E+00  0.3200E+02
   0.570  0.0000E+00  0.3200E+02
   0.580  0.0000E+00  0.3200E+02
   0.590  0.0000E+00  0.3200E+02
   0.600  0.0000E+00  0.3200E+02
   0.610  0.0000E+00  0.3200E+02
   0.620  0.0000E+00  0.3200E+02
   0.630  0.0000E+00  0.3200E+02
   0.640  0.0000E+00  0.3200E+02
   0.650  0.0000E+00  0.3200E+02
   0.660  0.0000E+00  0.3200E+02
   0.670  0.0000E+00  0.3200E+02
   0.680  0.0000E+00  0.3200E+02
   0.690  0.0000E+00  0.3200E+02
   0.700  0.0000E+00  0.3200E+02
   0.710  0.0000E+00  0.3200E+02
   0.720  0.0000E+00  0.3200E+02
   0.730  0.0000E+00  0.3200E+02
   0.740  0.0000E+00  0.3200E+02
   0.750  0.0000E+00  0.3200E+02
   0.760  0.0000E+00  0.3200E+02
   0.770  0.0000E+00  0.3200E+02
   0.780  0.0000E+00  0.3200E+02
   0.790  0.0000E+00  0.3200E+02
   0.800  0.0000E+00  0.3200E+02
   0.810  0.0000E+00  0.3200E+02
   0.820  0.0000E+00  0.3200E+02
   0.830  0.0000E+00  0.3200E+02
   0.840  0.0000E+00  0.3200E+02
   0.850  0.0000E+00  0.3200E+02
   0.860  0.0000E+00  0.3200E+02
   0.870  0.0000E+00  0.3200E+02
   0.880  0.0000E+00  0.3200E+02
   0.890  0.0000E+00  0.3200E+02
   0.900  0.0000E+00  0.3200E+02
   0.910  0.0000E+00  0.3200E+02
   0.920  0.0000E+00  0.3200E+02
   0.930  0.0000E+00  0.3200E+02
   0.940  0.0000E+00  0.3200E+02
   0.950  0.0000E+00  0.3200E+02
   0.960  0.0000E+00  0.3200E+02
   0.970  0.0000E+00  0.3200E+02
   0.980  0.0000E+00  0.3200E+02
   0.990  0.0000E+00  0.3200E+02
   1.000  0.0000E+00  0.3200E+02
   1.010  0.0000E+00  0.3200E+02
   1.020  0.0000E+00  0.3200E+02
   1.030  0.0000E+00  0.3200E+02
   1.040  0.0000E+00  0.3200E+02
   1.050  0.0000E+00  0.3200E+02
   1.060  0.0000E+00  0.3200E+02
   1.070  0.0000E+00  0.3200E+02
   1.080  0.0000E+00  0.3200E+02
   1.090  0.0000E+00  0.3200E+02
   1.100  0.0000E+00  0.3200E+02
   1.110  0.0000E+00  0.3200E+02
   1.120  0.0000E+00  0.3200E+02
   1.130  0.0000E+00  0.3200E+02
   1.140  0.0000E+00  0.3200E+02
   1.150  0.0000E+00  0.3200E+02
   1.160  0.0000E+00  0.3200E+02
   1.170  0.0000E+00  0.3200E+02
   1.180  0.0000E+00  0.3200E+02
   1.190  0.0000E+00  0.3200E+02
   1.200  0.0000E+00  0.3200E+02
   1.210  0.0000E+00  0.3200E+02
   1.220  0.0000E+00  0.3200E+02
   1.230  0.0000E+00  0.3200E+02
   1.240  0.0000E+00  0.3200E+02
   1.250  0.0000E+00  0.3200E+02
   1.260  0.0000E+00  0.3200E+02
   1.270  0.0000E+00  0.3200E+02
   1.280  0.0000E+00  0.3200E+02
   1.290  0.0000E+00  0.3200E+02
   1.300  0.0000E+00  0.3200E+02
   1.310  0.0000E+00  0.3200E+02
   1.320  0.0000E+00  0.3200E+02
   1.330  0.0000E+00  0.3200E+02
   1.340  0.0000E+00  0.3200E+02
   1.350  0.0000E+00  0.3200E+02
   1.360  0.0000E+00  0.3200E+02
   1.370  0.0000E+00  0.3200E+02
   1.380  0.0000E+00  0.3200E+02
   1.390  0.0000E+00  0.3200E+02
   1.400  0.0000E+00  0.3200E+02
   1.410  0.0000E+00  0.3200E+02
   1.420  0.0000E+00  0.3200E+02
   1.430  0.0000E+00  0.3200E+02
   1.440  0.0000E+00  0.3200E+02
   1.450  0.0000E+00  0.3200E+02
   1.460  0.3959E-04  0.3200E+02
   1.470  0.6135E-02  0.3200E+02
   1.480  0.2439E-01  0.3200E+02
   1.490  0.3863E-01  0.3200E+02
   1.500  0.5529E-01  0.3200E+02
   1.510  0.7409E-01  0.3200E+02
   1.520  0.8934E-01  0.3200E+02
   1.530  0.1058E+00  0.3200E+02
   1.540  0.1238E+00  0.3200E+02
   1.550  0.1646E+00  0.3201E+02
   1.560  0.1987E+00  0.3201E+02
   1.570  0.2131E+00  0.3201E+02
   1.580  0.2249E+00  0.3201E+02
   1.590  0.2298E+00  0.3201E+02
   1.600  0.2208E+00  0.3202E+02
   1.610  0.2314E+00  0.3202E+02
   1.620  0.2397E+00  0.3202E+02
   1.630  0.2471E+00  0.3202E+02
   1.640  0.2415E+00  0.3203E+02
   1.650  0.2409E+00  0.3203E+02
   1.660  0.2459E+00  0.3203E+02
   1.670  0.2534E+00  0.3203E+02
   1.680  0.2607E+00  0.3204E+02
   1.690  0.2620E+00  0.3204E+02
   1.700  0.2629E+00  0.3204E+02
   1.710  0.2656E+00  0.3204E+02
   1.720  0.2688E+00  0.3205E+02
   1.730  0.3415E+00  0.3205E+02
   1.740  0.3767E+00  0.3205E+02
   1.750  0.4129E+00  0.3206E+02
   1.760  0.4409E+00  0.3206E+02
   1.770  0.4490E+00  0.3207E+02
   1.780  0.4820E+00  0.3207E+02
   1.790  0.5146E+00  0.3208E+02
   1.800  0.5376E+00  0.3208E+02
   1.810  0.5593E+00  0.3209E+02
   1.820  0.5803E+00  0.3209E+02
   1.830  0.5931E+00  0.3210E+02
   1.840  0.6038E+00  0.3210E+02
   1.850  0.6055E+00  0.3211E+02
   1.860  0.6146E+00  0.3212E+02
   1.870  0.6259E+00  0.3212E+02
   1.880  0.6326E+00  0.3213E+02
   1.890  0.6440E+00  0.3214E+02
   1.900  0.6586E+00  0.3214E+02
   1.910  0.6684E+00  0.3215E+02
   1.920  0.6714E+00  0.3216E+02
   1.930  0.6824E+00  0.3216E+02
   1.940  0.6928E+00  0.3217E+02
   1.950  0.7029E+00  0.3218E+02
   1.960  0.7177E+00  0.3218E+02
   1.970  0.7327E+00  0.3219E+02
   1.980  0.7400E+00  0.3220E+02
   1.990  0.7485E+00  0.3221E+02
   2.000  0.7556E+00  0.3221E+02
   2.010  0.7715E+00  0.3222E+02
   2.020  0.7854E+00  0.3223E+02
   2.030  0.7979E+00  0.3224E+02
   2.040  0.8101E+00  0.3224E+02
   2.050  0.8240E+00  0.3225E+02
   2.060  0.8370E+00  0.3226E+02
   2.070  0.8494E+00  0.3227E+02
   2.080  0.8590E+00  0.3228E+02
   2.090  0.8730E+00  0.3229E+02
   2.100  0.8893E+00  0.3229E+02
   2.110  0.9058E+00  0.3230E+02
   2.120  0.9198E+00  0.3231E+02
   2.130  0.9338E+00  0.3232E+02
   2.140  0.9490E+00  0.3233E+02
   2.150  0.9666E+00  0.3234E+02
   2.160  0.9797E+00  0.3235E+02
   2.170  0.9953E+00  0.3236E+02
   2.180  0.1011E+01  0.3237E+02
   2.190  0.1032E+01  0.3238E+02
   2.200  0.1050E+01  0.3239E+02
   2.210  0.1067E+01  0.3240E+02
   2.220  0.1085E+01  0.3241E+02
   2.230  0.1103E+01  0.3242E+02
   2.240  0.1121E+01  0.3243E+02
   2.250  0.1137E+01  0.3245E+02
   2.260  0.1162E+01  0.3246E+02
   2.270  0.1183E+01  0.3247E+02
   2.280  0.1205E+01  0.3248E+02
   2.290  0.1226E+01  0.3249E+02
   2.300  0.1249E+01  0.3251E+02
   2.310  0.1270E+01  0.3252E+02
   2.320  0.1291E+01  0.3253E+02
   2.330  0.1317E+01  0.3254E+02
   2.340  0.1344E+01  0.3256E+02
   2.350  0.1369E+01  0.3257E+02
   2.360  0.1394E+01  0.3258E+02
   2.370  0.1422E+01  0.3260E+02
   2.380  0.1449E+01  0.3261E+02
   2.390  0.1475E+01  0.3263E+02
   2.400  0.1505E+01  0.3264E+02
   2.410  0.1538E+01  0.3266E+02
   2.420  0.1569E+01  0.3267E+02
   2.430  0.1599E+01  0.3269E+02
   2.440  0.1630E+01  0.3271E+02
   2.450  0.1667E+01  0.3272E+02
   2.460  0.1700E+01  0.3274E+02
   2.470  0.1735E+01  0.3276E+02
   2.480  0.1777E+01  0.3277E+02
   2.490  0.1815E+01  0.3279E+02
   2.500  0.1852E+01  0.3281E+02
   2.510  0.1891E+01  0.3283E+02
   2.520  0.1937E+01  0.3285E+02
   2.530  0.1981E+01  0.3287E+02
   2.540  0.2024E+01  0.3289E+02
   2.550  0.2077E+01  0.3291E+02
   2.560  0.2123E+01  0.3293E+02
   2.570  0.2168E+01  0.3295E+02
   2.580  0.2227E+01  0.3297E+02
   2.590  0.2281E+01  0.3299E+02
   2.600  0.2338E+01  0.3302E+02
   2.610  0.2402E+01  0.3304E+02
   2.620  0.2459E+01  0.3307E+02
   2.630  0.2519E+01  0.3309E+02
   2.640  0.2591E+01  0.3312E+02
   2.650  0.2661E+01  0.3314E+02
   2.660  0.2739E+01  0.3317E+02
   2.670  0.2814E+01  0.3320E+02
   2.680  0.2886E+01  0.3323E+02
   2.690  0.2972E+01  0.3326E+02
   2.700  0.3060E+01  0.3329E+02
   2.710  0.3160E+01  0.3332E+02
   2.720  0.3255E+01  0.3335E+02
   2.730  0.3347E+01  0.3338E+02
   2.740  0.3452E+01  0.3342E+02
   2.750  0.3562E+01  0.3345E+02
   2.760  0.3703E+01  0.3349E+02
   2.770  0.3818E+01  0.3352E+02
   2.780  0.3945E+01  0.3356E+02
   2.790  0.4066E+01  0.3360E+02
   2.800  0.4244E+01  0.3364E+02
   2.810  0.4418E+01  0.3369E+02
   2.820  0.4572E+01  0.3373E+02
   2.830  0.4734E+01  0.3378E+02
   2.840  0.4963E+01  0.3383E+02
   2.850  0.5214E+01  0.3388E+02
   2.860  0.5413E+01  0.3393E+02
   2.870  0.5687E+01  0.3399E+02
   2.880  0.6071E+01  0.3405E+02
   2.890  0.6369E+01  0.3411E+02
   2.900  0.7007E+01  0.3418E+02
   2.910  0.7624E+01  0.3425E+02
   2.920  0.9009E+01  0.3433E+02
   2.930  0.9111E+01  0.3443E+02
   2.940  0.8778E+01  0.3451E+02
   2.950  0.9887E+01  0.3461E+02
   2.960  0.8300E+01  0.3470E+02
   2.970  0.7148E+01  0.3477E+02
   2.980  0.6565E+01  0.3484E+02
   2.990  0.6115E+01  0.3490E+02
   3.000  0.5742E+01  0.3496E+02
   3.010  0.5433E+01  0.3502E+02
   3.020  0.5164E+01  0.3507E+02
   3.030  0.4915E+01  0.3512E+02
   3.040  0.4708E+01  0.3517E+02
   3.050  0.4497E+01  0.3522E+02
   3.060  0.4311E+01  0.3526E+02
   3.070  0.4156E+01  0.3530E+02
   3.080  0.3985E+01  0.3534E+02
   3.090  0.3825E+01  0.3538E+02
   3.100  0.3702E+01  0.3542E+02
   3.110  0.3562E+01  0.3546E+02
   3.120  0.3434E+01  0.3549E+02
   3.130  0.3307E+01  0.3552E+02
   3.140  0.3218E+01  0.3556E+02
   3.150  0.3071E+01  0.3559E+02
   3.160  0.2994E+01  0.3562E+02
   3.170  0.2871E+01  0.3565E+02
   3.180  0.2812E+01  0.3568E+02
   3.190  0.2684E+01  0.3570E+02
   3.200  0.2638E+01  0.3573E+02
   3.210  0.2540E+01  0.3576E+02
   3.220  0.2461E+01  0.3578E+02
   3.230  0.2369E+01  0.3581E+02
   3.240  0.2340E+01  0.3583E+02
   3.250  0.2211E+01  0.3585E+02
   3.260  0.2223E+01  0.3587E+02
   3.270  0.2137E+01  0.3590E+02
   3.280  0.2022E+01  0.3592E+02
   3.290  0.2045E+01  0.3594E+02
   3.300  0.1789E+01  0.3596E+02
   3.310  0.1810E+01  0.3598E+02
   3.320  0.8326E+00  0.3599E+02
   3.330  0.8255E+00  0.3600E+02
   3.340  0.0000E+00  0.3600E+02
   3.350  0.0000E+00  0.3600E+02
   3.360  0.0000E+00  0.3600E+02
   3.370  0.0000E+00  0.3600E+02
   3.380  0.0000E+00  0.3600E+02
   3.390  0.0000E+00  0.3600E+02
   3.400  0.0000E+00  0.3600E+02
   3.410  0.0000E+00  0.3600E+02
   3.420  0.0000E+00  0.3600E+02
   3.430  0.0000E+00  0.3600E+02
   3.440  0.0000E+00  0.3600E+02
   3.450  0.0000E+00  0.3600E+02
   3.460  0.0000E+00  0.3600E+02
   3.470  0.0000E+00  0.3600E+02
   3.480  0.0000E+00  0.3600E+02
   3.490  0.0000E+00  0.3600E+02
   3.500  0.0000E+00  0.3600E+02
   3.510  0.0000E+00  0.3600E+02
   3.520  0.0000E+00  0.3600E+02
   3.530  0.0000E+00  0.3600E+02
   3.540  0.0000E+00  0.3600E+02
   3.550  0.0000E+00  0.3600E+02
   3.560  0.0000E+00  0.3600E+02
   3.570  0.0000E+00  0.3600E+02
   3.580  0.0000E+00  0.3600E+02
   3.590  0.0000E+00  0.3600E+02
   3.600  0.0000E+00  0.3600E+02
   3.610  0.0000E+00  0.3600E+02
   3.620  0.0000E+00  0.3600E+02
   3.630  0.0000E+00  0.3600E+02
   3.640  0.0000E+00  0.3600E+02
   3.650  0.0000E+00  0.3600E+02
   3.660  0.0000E+00  0.3600E+02
   3.670  0.0000E+00  0.3600E+02
   3.680  0.0000E+00  0.3600E+02
   3.690  0.0000E+00  0.3600E+02
   3.700  0.0000E+00  0.3600E+02
   3.710  0.0000E+00  0.3600E+02
   3.720  0.0000E+00  0.3600E+02
   3.730  0.0000E+00  0.3600E+02
   3.740  0.0000E+00  0.3600E+02
   3.750  0.0000E+00  0.3600E+02
   3.760  0.0000E+00  0.3600E+02
   3.770  0.0000E+00  0.3600E+02
   3.780  0.0000E+00  0.3600E+02
   3.790  0.0000E+00  0.3600E+02
   3.800  0.0000E+00  0.3600E+02
   3.810  0.0000E+00  0.3600E+02
   3.820  0.0000E+00  0.3600E+02
   3.830  0.0000E+00  0.3600E+02
   3.840  0.0000E+00  0.3600E+02
   3.850  0.0000E+00  0.3600E+02
   3.860  0.0000E+00  0.3600E+02
   3.870  0.0000E+00  0.3600E+02
   3.880  0.0000E+00  0.3600E+02
   3.890  0.0000E+00  0.3600E+02
   3.900  0.0000E+00  0.3600E+02
   3.910  0.0000E+00  0.3600E+02
   3.920  0.0000E+00  0.3600E+02
   3.930  0.0000E+00  0.3600E+02
   3.940  0.0000E+00  0.3600E+02
   3.950  0.0000E+00  0.3600E+02
   3.960  0.0000E+00  0.3600E+02
   3.970  0.0000E+00  0.3600E+02
   3.980  0.1691E-02  0.3600E+02
   3.990  0.1154E-01  0.3600E+02
   4.000  0.1796E-01  0.3600E+02
   4.010  0.2513E-01  0.3600E+02
   4.020  0.3304E-01  0.3600E+02
   4.030  0.4215E-01  0.3600E+02
   4.040  0.5185E-01  0.3600E+02
   4.050  0.5960E-01  0.3600E+02
   4.060  0.6724E-01  0.3600E+02
   4.070  0.7532E-01  0.3600E+02
   4.080  0.8384E-01  0.3600E+02
   4.090  0.1020E+00  0.3601E+02
   4.100  0.1308E+00  0.3601E+02
   4.110  0.1339E+00  0.3601E+02
   4.120  0.1402E+00  0.3601E+02
   4.130  0.1454E+00  0.3601E+02
   4.140  0.1496E+00  0.3601E+02
   4.150  0.1526E+00  0.3601E+02
   4.160  0.1403E+00  0.3602E+02
   4.170  0.1433E+00  0.3602E+02
   4.180  0.1472E+00  0.3602E+02
   4.190  0.1509E+00  0.3602E+02
   4.200  0.1541E+00  0.3602E+02
   4.210  0.1562E+00  0.3602E+02
   4.220  0.1527E+00  0.3602E+02
   4.230  0.1516E+00  0.3603E+02
   4.240  0.1507E+00  0.3603E+02
   4.250  0.1500E+00  0.3603E+02
   4.260  0.1521E+00  0.3603E+02
   4.270  0.1543E+00  0.3603E+02
   4.280  0.1565E+00  0.3603E+02
   4.290  0.1586E+00  0.3603E+02
   4.300  0.1606E+00  0.3604E+02
   4.310  0.1588E+00  0.3604E+02
   4.320  0.1554E+00  0.3604E+02
   4.330  0.1738E+00  0.3604E+02
   4.340  0.2014E+00  0.3604E+02
   4.350  0.2121E+00  0.3605E+02
   4.360  0.2233E+00  0.3605E+02
   4.370  0.2353E+00  0.3605E+02
   4.380  0.2622E+00  0.3605E+02
   4.390  0.2604E+00  0.3605E+02
   4.400  0.2592E+00  0.3606E+02
   4.410  0.2698E+00  0.3606E+02
   4.420  0.2807E+00  0.3606E+02
   4.430  0.2877E+00  0.3607E+02
   4.440  0.2980E+00  0.3607E+02
   4.450  0.3090E+00  0.3607E+02
   4.460  0.3141E+00  0.3607E+02
   4.470  0.3170E+00  0.3608E+02
   4.480  0.3143E+00  0.3608E+02
   4.490  0.3151E+00  0.3608E+02
   4.500  0.3179E+00  0.3609E+02
   4.510  0.3203E+00  0.3609E+02
   4.520  0.3218E+00  0.3609E+02
   4.530  0.3261E+00  0.3610E+02
   4.540  0.3310E+00  0.3610E+02
   4.550  0.3297E+00  0.3610E+02
   4.560  0.3279E+00  0.3611E+02
   4.570  0.3274E+00  0.3611E+02
   4.580  0.3275E+00  0.3611E+02
   4.590  0.3280E+00  0.3612E+02
   4.600  0.3289E+00  0.3612E+02
   4.610  0.3301E+00  0.3612E+02
   4.620  0.3344E+00  0.3613E+02
   4.630  0.3376E+00  0.3613E+02
   4.640  0.3407E+00  0.3613E+02
   4.650  0.3437E+00  0.3614E+02
   4.660  0.3433E+00  0.3614E+02
   4.670  0.3429E+00  0.3614E+02
   4.680  0.3422E+00  0.3615E+02
   4.690  0.3422E+00  0.3615E+02
   4.700  0.3457E+00  0.3615E+02
   4.710  0.3455E+00  0.3616E+02
   4.720  0.3467E+00  0.3616E+02
   4.730  0.3481E+00  0.3616E+02
   4.740  0.3498E+00  0.3617E+02
   4.750  0.3516E+00  0.3617E+02
   4.760  0.3538E+00  0.3617E+02
   4.770  0.3561E+00  0.3618E+02
   4.780  0.3584E+00  0.3618E+02
   4.790  0.3611E+00  0.3619E+02
   4.800  0.3607E+00  0.3619E+02
   4.810  0.3613E+00  0.3619E+02
   4.820  0.3624E+00  0.3620E+02
   4.830  0.3635E+00  0.3620E+02
   4.840  0.3643E+00  0.3620E+02
   4.850  0.3664E+00  0.3621E+02
   4.860  0.3679E+00  0.3621E+02
   4.870  0.3679E+00  0.3621E+02
   4.880  0.3691E+00  0.3622E+02
   4.890  0.3710E+00  0.3622E+02
   4.900  0.3729E+00  0.3623E+02
   4.910  0.3748E+00  0.3623E+02
   4.920  0.3766E+00  0.3623E+02
   4.930  0.3787E+00  0.3624E+02
   4.940  0.3812E+00  0.3624E+02
   4.950  0.3808E+00  0.3624E+02
   4.960  0.3819E+00  0.3625E+02
   4.970  0.3830E+00  0.3625E+02
   4.980  0.3853E+00  0.3626E+02
   4.990  0.3868E+00  0.3626E+02
   5.000  0.3881E+00  0.3626E+02
   5.010  0.3894E+00  0.3627E+02
   5.020  0.3905E+00  0.3627E+02
   5.030  0.3929E+00  0.3628E+02
   5.040  0.3934E+00  0.3628E+02
   5.050  0.3945E+00  0.3628E+02
   5.060  0.3957E+00  0.3629E+02
   5.070  0.3994E+00  0.3629E+02
   5.080  0.4502E+00  0.3630E+02
   5.090  0.6029E+00  0.3630E+02
   5.100  0.7541E+00  0.3631E+02
   5.110  0.9397E+00  0.3632E+02
   5.120  0.9629E+00  0.3633E+02
   5.130  0.1005E+01  0.3634E+02
   5.140  0.1027E+01  0.3635E+02
   5.150  0.9839E+00  0.3636E+02
   5.160  0.1062E+01  0.3637E+02
   5.170  0.1258E+01  0.3638E+02
   5.180  0.1422E+01  0.3639E+02
   5.190  0.1578E+01  0.3641E+02
   5.200  0.1676E+01  0.3642E+02
   5.210  0.1624E+01  0.3644E+02
   5.220  0.1658E+01  0.3646E+02
   5.230  0.1632E+01  0.3647E+02
   5.240  0.1641E+01  0.3649E+02
   5.250  0.1685E+01  0.3651E+02
   5.260  0.1719E+01  0.3652E+02
   5.270  0.1741E+01  0.3654E+02
   5.280  0.1739E+01  0.3656E+02
   5.290  0.1704E+01  0.3658E+02
   5.300  0.1697E+01  0.3659E+02
   5.310  0.1705E+01  0.3661E+02
   5.320  0.1740E+01  0.3663E+02
   5.330  0.1789E+01  0.3664E+02
   5.340  0.1811E+01  0.3666E+02
   5.350  0.1809E+01  0.3668E+02
   5.360  0.1803E+01  0.3670E+02
   5.370  0.1803E+01  0.3672E+02
   5.380  0.1813E+01  0.3673E+02
   5.390  0.1832E+01  0.3675E+02
   5.400  0.1847E+01  0.3677E+02
   5.410  0.1852E+01  0.3679E+02
   5.420  0.1870E+01  0.3681E+02
   5.430  0.1893E+01  0.3683E+02
   5.440  0.1912E+01  0.3685E+02
   5.450  0.1928E+01  0.3686E+02
   5.460  0.1945E+01  0.3688E+02
   5.470  0.1971E+01  0.3690E+02
   5.480  0.1983E+01  0.3692E+02
   5.490  0.1980E+01  0.3694E+02
   5.500  0.1983E+01  0.3696E+02
   5.510  0.2015E+01  0.3698E+02
   5.520  0.2054E+01  0.3700E+02
   5.530  0.2076E+01  0.3702E+02
   5.540  0.2091E+01  0.3705E+02
   5.550  0.2124E+01  0.3707E+02
   5.560  0.2155E+01  0.3709E+02
   5.570  0.2177E+01  0.3711E+02
   5.580  0.2198E+01  0.3713E+02
   5.590  0.2234E+01  0.3715E+02
   5.600  0.2288E+01  0.3718E+02
   5.610  0.2307E+01  0.3720E+02
   5.620  0.2331E+01  0.3722E+02
   5.630  0.2410E+01  0.3725E+02
   5.640  0.2465E+01  0.3727E+02
   5.650  0.2502E+01  0.3729E+02
   5.660  0.2593E+01  0.3732E+02
   5.670  0.2705E+01  0.3735E+02
   5.680  0.2804E+01  0.3737E+02
   5.690  0.2996E+01  0.3740E+02
   5.700  0.4383E+01  0.3744E+02
   5.710  0.5778E+01  0.3749E+02
   5.720  0.6275E+01  0.3754E+02
   5.730  0.5238E+01  0.3760E+02
   5.740  0.4405E+01  0.3765E+02
   5.750  0.3829E+01  0.3769E+02
   5.760  0.3590E+01  0.3773E+02
   5.770  0.3375E+01  0.3776E+02
   5.780  0.3195E+01  0.3780E+02
   5.790  0.3051E+01  0.3783E+02
   5.800  0.2946E+01  0.3786E+02
   5.810  0.2862E+01  0.3789E+02
   5.820  0.2766E+01  0.3791E+02
   5.830  0.2717E+01  0.3794E+02
   5.840  0.2635E+01  0.3797E+02
   5.850  0.2590E+01  0.3800E+02
   5.860  0.2542E+01  0.3802E+02
   5.870  0.2493E+01  0.3805E+02
   5.880  0.2450E+01  0.3807E+02
   5.890  0.2413E+01  0.3809E+02
   5.900  0.2390E+01  0.3812E+02
   5.910  0.2353E+01  0.3814E+02
   5.920  0.2312E+01  0.3817E+02
   5.930  0.2279E+01  0.3819E+02
   5.940  0.2248E+01  0.3821E+02
   5.950  0.2230E+01  0.3823E+02
   5.960  0.2212E+01  0.3826E+02
   5.970  0.2183E+01  0.3828E+02
   5.980  0.2164E+01  0.3830E+02
   5.990  0.2141E+01  0.3832E+02
   6.000  0.2126E+01  0.3834E+02
   6.010  0.2112E+01  0.3836E+02
   6.020  0.2093E+01  0.3838E+02
   6.030  0.2074E+01  0.3841E+02
   6.040  0.2054E+01  0.3843E+02
   6.050  0.2036E+01  0.3845E+02
   6.060  0.2020E+01  0.3847E+02
   6.070  0.2013E+01  0.3849E+02
   6.080  0.2008E+01  0.3851E+02
   6.090  0.2003E+01  0.3853E+02
   6.100  0.1988E+01  0.3855E+02
   6.110  0.1971E+01  0.3857E+02
   6.120  0.1957E+01  0.3859E+02
   6.130  0.1944E+01  0.3861E+02
   6.140  0.1936E+01  0.3863E+02
   6.150  0.1931E+01  0.3865E+02
   6.160  0.1925E+01  0.3866E+02
   6.170  0.1918E+01  0.3868E+02
   6.180  0.1903E+01  0.3870E+02
   6.190  0.1901E+01  0.3872E+02
   6.200  0.1893E+01  0.3874E+02
   6.210  0.1891E+01  0.3876E+02
   6.220  0.1889E+01  0.3878E+02
   6.230  0.1883E+01  0.3880E+02
   6.240  0.1876E+01  0.3882E+02
   6.250  0.1869E+01  0.3883E+02
   6.260  0.1862E+01  0.3885E+02
   6.270  0.1854E+01  0.3887E+02
   6.280  0.1850E+01  0.3889E+02
   6.290  0.1848E+01  0.3891E+02
   6.300  0.1866E+01  0.3893E+02
   6.310  0.1891E+01  0.3895E+02
   6.320  0.1912E+01  0.3897E+02
   6.330  0.1940E+01  0.3898E+02
   6.340  0.1956E+01  0.3900E+02
   6.350  0.1976E+01  0.3902E+02
   6.360  0.1999E+01  0.3904E+02
   6.370  0.2025E+01  0.3906E+02
   6.380  0.2053E+01  0.3908E+02
   6.390  0.2089E+01  0.3910E+02
   6.400  0.2128E+01  0.3913E+02
   6.410  0.2176E+01  0.3915E+02
   6.420  0.2224E+01  0.3917E+02
   6.430  0.2263E+01  0.3919E+02
   6.440  0.2300E+01  0.3921E+02
   6.450  0.2397E+01  0.3924E+02
   6.460  0.2467E+01  0.3926E+02
   6.470  0.2501E+01  0.3929E+02
   6.480  0.2519E+01  0.3931E+02
   6.490  0.2517E+01  0.3934E+02
   6.500  0.2461E+01  0.3936E+02
   6.510  0.2380E+01  0.3939E+02
   6.520  0.2440E+01  0.3941E+02
   6.530  0.2767E+01  0.3944E+02
   6.540  0.2578E+01  0.3946E+02
   6.550  0.2592E+01  0.3949E+02
   6.560  0.2590E+01  0.3952E+02
   6.570  0.2505E+01  0.3954E+02
   6.580  0.2439E+01  0.3957E+02
   6.590  0.2396E+01  0.3959E+02
   6.600  0.2343E+01  0.3961E+02
   6.610  0.2342E+01  0.3964E+02
   6.620  0.2217E+01  0.3966E+02
   6.630  0.2158E+01  0.3968E+02
   6.640  0.2098E+01  0.3970E+02
   6.650  0.2044E+01  0.3972E+02
   6.660  0.1997E+01  0.3974E+02
   6.670  0.2005E+01  0.3976E+02
   6.680  0.1944E+01  0.3978E+02
   6.690  0.1918E+01  0.3980E+02
   6.700  0.1890E+01  0.3982E+02
   6.710  0.1852E+01  0.3984E+02
   6.720  0.1808E+01  0.3986E+02
   6.730  0.1793E+01  0.3988E+02
   6.740  0.1788E+01  0.3989E+02
   6.750  0.1815E+01  0.3991E+02
   6.760  0.1837E+01  0.3993E+02
   6.770  0.1930E+01  0.3995E+02
   6.780  0.1986E+01  0.3997E+02
   6.790  0.2037E+01  0.3999E+02
   6.800  0.2082E+01  0.4001E+02
   6.810  0.2152E+01  0.4003E+02
   6.820  0.2185E+01  0.4005E+02
   6.830  0.2213E+01  0.4008E+02
   6.840  0.2262E+01  0.4010E+02
   6.850  0.2319E+01  0.4012E+02
   6.860  0.2366E+01  0.4014E+02
   6.870  0.2417E+01  0.4017E+02
   6.880  0.2462E+01  0.4019E+02
   6.890  0.2517E+01  0.4022E+02
   6.900  0.2656E+01  0.4024E+02
   6.910  0.2676E+01  0.4027E+02
   6.920  0.2693E+01  0.4030E+02
   6.930  0.2764E+01  0.4032E+02
   6.940  0.2797E+01  0.4035E+02
   6.950  0.2782E+01  0.4038E+02
   6.960  0.2763E+01  0.4041E+02
   6.970  0.2940E+01  0.4044E+02
   6.980  0.2878E+01  0.4046E+02
   6.990  0.2922E+01  0.4049E+02
   7.000  0.2898E+01  0.4052E+02
   7.010  0.2955E+01  0.4055E+02
   7.020  0.2969E+01  0.4058E+02
   7.030  0.3032E+01  0.4061E+02
   7.040  0.2752E+01  0.4064E+02
   7.050  0.2672E+01  0.4067E+02
   7.060  0.2586E+01  0.4069E+02
   7.070  0.2550E+01  0.4072E+02
   7.080  0.2599E+01  0.4075E+02
   7.090  0.2531E+01  0.4077E+02
   7.100  0.2424E+01  0.4080E+02
   7.110  0.2355E+01  0.4082E+02
   7.120  0.2346E+01  0.4084E+02
   7.130  0.2314E+01  0.4087E+02
   7.140  0.2252E+01  0.4089E+02
   7.150  0.2217E+01  0.4091E+02
   7.160  0.2195E+01  0.4093E+02
   7.170  0.2182E+01  0.4096E+02
   7.180  0.2177E+01  0.4098E+02
   7.190  0.2228E+01  0.4100E+02
   7.200  0.2270E+01  0.4102E+02
   7.210  0.2302E+01  0.4104E+02
   7.220  0.2316E+01  0.4107E+02
   7.230  0.2358E+01  0.4109E+02
   7.240  0.2416E+01  0.4112E+02
   7.250  0.2471E+01  0.4114E+02
   7.260  0.2528E+01  0.4116E+02
   7.270  0.2633E+01  0.4119E+02
   7.280  0.2647E+01  0.4122E+02
   7.290  0.2680E+01  0.4124E+02
   7.300  0.2655E+01  0.4127E+02
   7.310  0.2641E+01  0.4130E+02
   7.320  0.2580E+01  0.4132E+02
   7.330  0.2575E+01  0.4135E+02
   7.340  0.2661E+01  0.4138E+02
   7.350  0.2712E+01  0.4140E+02
   7.360  0.2816E+01  0.4143E+02
   7.370  0.2876E+01  0.4146E+02
   7.380  0.3015E+01  0.4149E+02
   7.390  0.3147E+01  0.4152E+02
   7.400  0.3074E+01  0.4155E+02
   7.410  0.3100E+01  0.4158E+02
   7.420  0.3141E+01  0.4161E+02
   7.430  0.3141E+01  0.4164E+02
   7.440  0.3177E+01  0.4168E+02
   7.450  0.3229E+01  0.4171E+02
   7.460  0.3288E+01  0.4174E+02
   7.470  0.3267E+01  0.4177E+02
   7.480  0.3266E+01  0.4181E+02
   7.490  0.3292E+01  0.4184E+02
   7.500  0.3285E+01  0.4187E+02
   7.510  0.3070E+01  0.4190E+02
   7.520  0.2943E+01  0.4193E+02
   7.530  0.2872E+01  0.4196E+02
   7.540  0.2812E+01  0.4199E+02
   7.550  0.2774E+01  0.4202E+02
   7.560  0.2767E+01  0.4205E+02
   7.570  0.2688E+01  0.4207E+02
   7.580  0.2652E+01  0.4210E+02
   7.590  0.2614E+01  0.4213E+02
   7.600  0.2588E+01  0.4215E+02
   7.610  0.2563E+01  0.4218E+02
   7.620  0.2676E+01  0.4220E+02
   7.630  0.2691E+01  0.4223E+02
   7.640  0.2854E+01  0.4226E+02
   7.650  0.2955E+01  0.4229E+02
   7.660  0.2798E+01  0.4232E+02
   7.670  0.2759E+01  0.4235E+02
   7.680  0.2724E+01  0.4237E+02
   7.690  0.2678E+01  0.4240E+02
   7.700  0.2544E+01  0.4243E+02
   7.710  0.2432E+01  0.4245E+02
   7.720  0.2345E+01  0.4247E+02
   7.730  0.2233E+01  0.4250E+02
   7.740  0.2130E+01  0.4252E+02
   7.750  0.2064E+01  0.4254E+02
   7.760  0.2003E+01  0.4256E+02
   7.770  0.1941E+01  0.4258E+02
   7.780  0.1891E+01  0.4260E+02
   7.790  0.1848E+01  0.4262E+02
   7.800  0.1814E+01  0.4264E+02
   7.810  0.1781E+01  0.4265E+02
   7.820  0.1749E+01  0.4267E+02
   7.830  0.1720E+01  0.4269E+02
   7.840  0.1696E+01  0.4271E+02
   7.850  0.1668E+01  0.4272E+02
   7.860  0.1642E+01  0.4274E+02
   7.870  0.1633E+01  0.4276E+02
   7.880  0.1631E+01  0.4277E+02
   7.890  0.1624E+01  0.4279E+02
   7.900  0.1616E+01  0.4280E+02
   7.910  0.1618E+01  0.4282E+02
   7.920  0.1637E+01  0.4284E+02
   7.930  0.1659E+01  0.4285E+02
   7.940  0.1679E+01  0.4287E+02
   7.950  0.1755E+01  0.4289E+02
   7.960  0.1723E+01  0.4290E+02
   7.970  0.1721E+01  0.4292E+02
   7.980  0.1720E+01  0.4294E+02
   7.990  0.1720E+01  0.4296E+02
   8.000  0.1706E+01  0.4297E+02
   8.010  0.1720E+01  0.4299E+02
   8.020  0.1742E+01  0.4301E+02
   8.030  0.1764E+01  0.4303E+02
   8.040  0.1740E+01  0.4304E+02
   8.050  0.1733E+01  0.4306E+02
   8.060  0.1733E+01  0.4308E+02
   8.070  0.1714E+01  0.4310E+02
   8.080  0.1721E+01  0.4311E+02
   8.090  0.1729E+01  0.4313E+02
   8.100  0.1738E+01  0.4315E+02
   8.110  0.1750E+01  0.4316E+02
   8.120  0.1759E+01  0.4318E+02
   8.130  0.1769E+01  0.4320E+02
   8.140  0.1784E+01  0.4322E+02
   8.150  0.1795E+01  0.4324E+02
   8.160  0.1823E+01  0.4325E+02
   8.170  0.1847E+01  0.4327E+02
   8.180  0.1836E+01  0.4329E+02
   8.190  0.1830E+01  0.4331E+02
   8.200  0.1835E+01  0.4333E+02
   8.210  0.1841E+01  0.4334E+02
   8.220  0.1853E+01  0.4336E+02
   8.230  0.1871E+01  0.4338E+02
   8.240  0.1894E+01  0.4340E+02
   8.250  0.1918E+01  0.4342E+02
   8.260  0.1934E+01  0.4344E+02
   8.270  0.1939E+01  0.4346E+02
   8.280  0.2014E+01  0.4348E+02
   8.290  0.2111E+01  0.4350E+02
   8.300  0.2171E+01  0.4352E+02
   8.310  0.2199E+01  0.4354E+02
   8.320  0.2239E+01  0.4356E+02
   8.330  0.2286E+01  0.4359E+02
   8.340  0.2347E+01  0.4361E+02
   8.350  0.2404E+01  0.4363E+02
   8.360  0.2420E+01  0.4366E+02
   8.370  0.2492E+01  0.4368E+02
   8.380  0.2576E+01  0.4371E+02
   8.390  0.2659E+01  0.4373E+02
   8.400  0.2768E+01  0.4376E+02
   8.410  0.2872E+01  0.4379E+02
   8.420  0.3002E+01  0.4382E+02
   8.430  0.3068E+01  0.4385E+02
   8.440  0.3143E+01  0.4388E+02
   8.450  0.3233E+01  0.4391E+02
   8.460  0.3423E+01  0.4395E+02
   8.470  0.3810E+01  0.4398E+02
   8.480  0.4083E+01  0.4402E+02
   8.490  0.4500E+01  0.4406E+02
   8.500  0.4421E+01  0.4411E+02
   8.510  0.3959E+01  0.4415E+02
   8.520  0.3738E+01  0.4419E+02
   8.530  0.3595E+01  0.4423E+02
   8.540  0.3486E+01  0.4426E+02
   8.550  0.3627E+01  0.4430E+02
   8.560  0.3803E+01  0.4434E+02
   8.570  0.3764E+01  0.4437E+02
   8.580  0.3869E+01  0.4441E+02
   8.590  0.3958E+01  0.4445E+02
   8.600  0.3961E+01  0.4449E+02
   8.610  0.4064E+01  0.4453E+02
   8.620  0.3987E+01  0.4457E+02
   8.630  0.3909E+01  0.4461E+02
   8.640  0.3827E+01  0.4465E+02
   8.650  0.3765E+01  0.4469E+02
   8.660  0.3744E+01  0.4473E+02
   8.670  0.3783E+01  0.4476E+02
   8.680  0.3709E+01  0.4480E+02
   8.690  0.3692E+01  0.4484E+02
   8.700  0.3583E+01  0.4487E+02
   8.710  0.3519E+01  0.4491E+02
   8.720  0.3470E+01  0.4495E+02
   8.730  0.3378E+01  0.4498E+02
   8.740  0.3397E+01  0.4501E+02
   8.750  0.3497E+01  0.4505E+02
   8.760  0.3559E+01  0.4508E+02
   8.770  0.3410E+01  0.4512E+02
   8.780  0.3334E+01  0.4515E+02
   8.790  0.3251E+01  0.4519E+02
   8.800  0.3089E+01  0.4522E+02
   8.810  0.3019E+01  0.4525E+02
   8.820  0.2979E+01  0.4528E+02
   8.830  0.2949E+01  0.4531E+02
   8.840  0.2947E+01  0.4534E+02
   8.850  0.2980E+01  0.4537E+02
   8.860  0.3042E+01  0.4540E+02
   8.870  0.3109E+01  0.4543E+02
   8.880  0.3172E+01  0.4546E+02
   8.890  0.3284E+01  0.4549E+02
   8.900  0.3292E+01  0.4552E+02
   8.910  0.3288E+01  0.4556E+02
   8.920  0.3319E+01  0.4559E+02
   8.930  0.3373E+01  0.4562E+02
   8.940  0.3441E+01  0.4566E+02
   8.950  0.3502E+01  0.4569E+02
   8.960  0.3549E+01  0.4573E+02
   8.970  0.3639E+01  0.4576E+02
   8.980  0.3787E+01  0.4580E+02
   8.990  0.4051E+01  0.4584E+02
   9.000  0.4091E+01  0.4588E+02
   9.010  0.4038E+01  0.4592E+02
   9.020  0.4033E+01  0.4596E+02
   9.030  0.3914E+01  0.4600E+02
   9.040  0.3940E+01  0.4604E+02
   9.050  0.3994E+01  0.4608E+02
   9.060  0.3960E+01  0.4612E+02
   9.070  0.3951E+01  0.4616E+02
   9.080  0.3963E+01  0.4620E+02
   9.090  0.3993E+01  0.4624E+02
   9.100  0.4022E+01  0.4628E+02
   9.110  0.4034E+01  0.4632E+02
   9.120  0.4062E+01  0.4636E+02
   9.130  0.4101E+01  0.4640E+02
   9.140  0.4210E+01  0.4644E+02
   9.150  0.4270E+01  0.4648E+02
   9.160  0.4338E+01  0.4653E+02
   9.170  0.4337E+01  0.4657E+02
   9.180  0.4310E+01  0.4661E+02
   9.190  0.4277E+01  0.4666E+02
   9.200  0.4319E+01  0.4670E+02
   9.210  0.4425E+01  0.4674E+02
   9.220  0.4797E+01  0.4679E+02
   9.230  0.4827E+01  0.4684E+02
   9.240  0.4829E+01  0.4689E+02
   9.250  0.4893E+01  0.4694E+02
   9.260  0.4869E+01  0.4698E+02
   9.270  0.4925E+01  0.4703E+02
   9.280  0.4937E+01  0.4708E+02
   9.290  0.4929E+01  0.4713E+02
   9.300  0.4958E+01  0.4718E+02
   9.310  0.5173E+01  0.4723E+02
   9.320  0.5319E+01  0.4728E+02
   9.330  0.5025E+01  0.4734E+02
   9.340  0.4692E+01  0.4738E+02
   9.350  0.4759E+01  0.4743E+02
   9.360  0.5013E+01  0.4748E+02
   9.370  0.4197E+01  0.4753E+02
   9.380  0.4005E+01  0.4757E+02
   9.390  0.4031E+01  0.4761E+02
   9.400  0.3595E+01  0.4765E+02
   9.410  0.3500E+01  0.4768E+02
   9.420  0.3569E+01  0.4772E+02
   9.430  0.3983E+01  0.4776E+02
   9.440  0.3973E+01  0.4780E+02
   9.450  0.4006E+01  0.4784E+02
   9.460  0.4110E+01  0.4788E+02
   9.470  0.4159E+01  0.4792E+02
   9.480  0.4249E+01  0.4796E+02
   9.490  0.4405E+01  0.4800E+02
   9.500  0.4646E+01  0.4805E+02
   9.510  0.5002E+01  0.4810E+02
   9.520  0.5261E+01  0.4815E+02
   9.530  0.5600E+01  0.4820E+02
   9.540  0.6518E+01  0.4827E+02
   9.550  0.7053E+01  0.4833E+02
   9.560  0.6737E+01  0.4840E+02
   9.570  0.6515E+01  0.4847E+02
   9.580  0.6783E+01  0.4853E+02
   9.590  0.6810E+01  0.4860E+02
   9.600  0.7048E+01  0.4867E+02
   9.610  0.6663E+01  0.4874E+02
   9.620  0.6624E+01  0.4881E+02
   9.630  0.7566E+01  0.4888E+02
   9.640  0.6383E+01  0.4894E+02
   9.650  0.6125E+01  0.4901E+02
   9.660  0.6012E+01  0.4907E+02
   9.670  0.6030E+01  0.4913E+02
   9.680  0.6410E+01  0.4919E+02
   9.690  0.6900E+01  0.4926E+02
   9.700  0.6602E+01  0.4933E+02
   9.710  0.5198E+01  0.4938E+02
   9.720  0.4813E+01  0.4943E+02
   9.730  0.4381E+01  0.4948E+02
   9.740  0.4235E+01  0.4952E+02
   9.750  0.4130E+01  0.4956E+02
   9.760  0.4069E+01  0.4961E+02
   9.770  0.4018E+01  0.4965E+02
   9.780  0.4025E+01  0.4969E+02
   9.790  0.4011E+01  0.4973E+02
   9.800  0.4149E+01  0.4977E+02
   9.810  0.4567E+01  0.4981E+02
   9.820  0.4751E+01  0.4986E+02
   9.830  0.3857E+01  0.4990E+02
   9.840  0.3964E+01  0.4994E+02
   9.850  0.4102E+01  0.4998E+02
   9.860  0.4261E+01  0.5002E+02
   9.870  0.4408E+01  0.5006E+02
   9.880  0.4571E+01  0.5011E+02
   9.890  0.5326E+01  0.5015E+02
   9.900  0.5607E+01  0.5021E+02
   9.910  0.5926E+01  0.5027E+02
   9.920  0.6222E+01  0.5033E+02
   9.930  0.6704E+01  0.5039E+02
   9.940  0.7217E+01  0.5046E+02
   9.950  0.7857E+01  0.5054E+02
   9.960  0.8610E+01  0.5062E+02
   9.970  0.9799E+01  0.5071E+02
   9.980  0.1093E+02  0.5082E+02
   9.990  0.1151E+02  0.5093E+02
  10.000  0.1037E+02  0.5104E+02
  10.010  0.9192E+01  0.5114E+02
  10.020  0.8758E+01  0.5123E+02
  10.030  0.8373E+01  0.5131E+02
  10.040  0.8402E+01  0.5140E+02
  10.050  0.8694E+01  0.5148E+02
  10.060  0.9844E+01  0.5157E+02
  10.070  0.5838E+01  0.5163E+02
  10.080  0.4363E+01  0.5169E+02
  10.090  0.4705E+01  0.5174E+02
  10.100  0.5181E+01  0.5179E+02
  10.110  0.7270E+01  0.5185E+02
  10.120  0.5914E+01  0.5191E+02
  10.130  0.5643E+01  0.5197E+02
  10.140  0.5621E+01  0.5202E+02
  10.150  0.5759E+01  0.5208E+02
  10.160  0.7069E+01  0.5215E+02
  10.170  0.6746E+01  0.5222E+02
  10.180  0.6671E+01  0.5228E+02
  10.190  0.6616E+01  0.5235E+02
  10.200  0.7386E+01  0.5242E+02
  10.210  0.8954E+01  0.5250E+02
  10.220  0.5270E+01  0.5256E+02
  10.230  0.5201E+01  0.5262E+02
  10.240  0.5041E+01  0.5267E+02
  10.250  0.4915E+01  0.5272E+02
  10.260  0.4724E+01  0.5276E+02
  10.270  0.4476E+01  0.5281E+02
  10.280  0.4259E+01  0.5285E+02
  10.290  0.4090E+01  0.5290E+02
  10.300  0.3959E+01  0.5294E+02
  10.310  0.3837E+01  0.5298E+02
  10.320  0.3691E+01  0.5301E+02
  10.330  0.3659E+01  0.5305E+02
  10.340  0.3620E+01  0.5309E+02
  10.350  0.3616E+01  0.5312E+02
  10.360  0.3624E+01  0.5316E+02
  10.370  0.3673E+01  0.5319E+02
  10.380  0.3952E+01  0.5323E+02
  10.390  0.3886E+01  0.5327E+02
  10.400  0.3887E+01  0.5331E+02
  10.410  0.3894E+01  0.5335E+02
  10.420  0.3937E+01  0.5339E+02
  10.430  0.4013E+01  0.5343E+02
  10.440  0.3975E+01  0.5347E+02
  10.450  0.4007E+01  0.5351E+02
  10.460  0.4054E+01  0.5355E+02
  10.470  0.4372E+01  0.5359E+02
  10.480  0.4621E+01  0.5364E+02
  10.490  0.4805E+01  0.5368E+02
  10.500  0.4921E+01  0.5373E+02
  10.510  0.5236E+01  0.5378E+02
  10.520  0.5482E+01  0.5384E+02
  10.530  0.5584E+01  0.5389E+02
  10.540  0.5619E+01  0.5395E+02
  10.550  0.5612E+01  0.5401E+02
  10.560  0.5685E+01  0.5406E+02
  10.570  0.5715E+01  0.5412E+02
  10.580  0.5716E+01  0.5418E+02
  10.590  0.5708E+01  0.5423E+02
  10.600  0.5693E+01  0.5429E+02
  10.610  0.5626E+01  0.5435E+02
  10.620  0.5566E+01  0.5440E+02
  10.630  0.5634E+01  0.5446E+02
  10.640  0.5568E+01  0.5452E+02
  10.650  0.5491E+01  0.5457E+02
  10.660  0.5571E+01  0.5463E+02
  10.670  0.5588E+01  0.5468E+02
  10.680  0.5609E+01  0.5474E+02
  10.690  0.5615E+01  0.5479E+02
  10.700  0.5681E+01  0.5485E+02
  10.710  0.5667E+01  0.5491E+02
  10.720  0.5784E+01  0.5496E+02
  10.730  0.6248E+01  0.5502E+02
  10.740  0.5489E+01  0.5508E+02
  10.750  0.5193E+01  0.5514E+02
  10.760  0.5031E+01  0.5519E+02
  10.770  0.4899E+01  0.5524E+02
  10.780  0.4765E+01  0.5528E+02
  10.790  0.4683E+01  0.5533E+02
  10.800  0.4549E+01  0.5538E+02
  10.810  0.4491E+01  0.5542E+02
  10.820  0.4440E+01  0.5547E+02
  10.830  0.4426E+01  0.5551E+02
  10.840  0.4406E+01  0.5556E+02
  10.850  0.4357E+01  0.5560E+02
  10.860  0.4387E+01  0.5564E+02
  10.870  0.4377E+01  0.5569E+02
  10.880  0.4376E+01  0.5573E+02
  10.890  0.4376E+01  0.5578E+02
  10.900  0.4392E+01  0.5582E+02
  10.910  0.4454E+01  0.5586E+02
  10.920  0.4536E+01  0.5591E+02
  10.930  0.4550E+01  0.5595E+02
  10.940  0.4602E+01  0.5600E+02
  10.950  0.4690E+01  0.5605E+02
  10.960  0.4812E+01  0.5609E+02
  10.970  0.4977E+01  0.5614E+02
  10.980  0.5097E+01  0.5619E+02
  10.990  0.5243E+01  0.5624E+02
  11.000  0.5356E+01  0.5630E+02
  11.010  0.5427E+01  0.5635E+02
  11.020  0.5447E+01  0.5641E+02
  11.030  0.5480E+01  0.5646E+02
  11.040  0.5521E+01  0.5652E+02
  11.050  0.5564E+01  0.5657E+02
  11.060  0.5594E+01  0.5663E+02
  11.070  0.5596E+01  0.5668E+02
  11.080  0.5433E+01  0.5674E+02
  11.090  0.5333E+01  0.5679E+02
  11.100  0.5287E+01  0.5684E+02
  11.110  0.5197E+01  0.5690E+02
  11.120  0.5112E+01  0.5695E+02
  11.130  0.5192E+01  0.5700E+02
  11.140  0.5344E+01  0.5705E+02
  11.150  0.5947E+01  0.5711E+02
  11.160  0.6250E+01  0.5717E+02
  11.170  0.6074E+01  0.5723E+02
  11.180  0.6149E+01  0.5729E+02
  11.190  0.6330E+01  0.5736E+02
  11.200  0.6523E+01  0.5742E+02
  11.210  0.6518E+01  0.5749E+02
  11.220  0.5923E+01  0.5755E+02
  11.230  0.5483E+01  0.5761E+02
  11.240  0.4905E+01  0.5766E+02
  11.250  0.4779E+01  0.5771E+02
  11.260  0.4660E+01  0.5775E+02
  11.270  0.4547E+01  0.5780E+02
  11.280  0.4477E+01  0.5785E+02
  11.290  0.4241E+01  0.5789E+02
  11.300  0.3974E+01  0.5793E+02
  11.310  0.3761E+01  0.5797E+02
  11.320  0.3656E+01  0.5801E+02
  11.330  0.3588E+01  0.5804E+02
  11.340  0.3505E+01  0.5808E+02
  11.350  0.3415E+01  0.5811E+02
  11.360  0.3368E+01  0.5815E+02
  11.370  0.3356E+01  0.5818E+02
  11.380  0.3314E+01  0.5821E+02
  11.390  0.3271E+01  0.5825E+02
  11.400  0.3251E+01  0.5828E+02
  11.410  0.3235E+01  0.5831E+02
  11.420  0.3259E+01  0.5834E+02
  11.430  0.3247E+01  0.5838E+02
  11.440  0.3186E+01  0.5841E+02
  11.450  0.3195E+01  0.5844E+02
  11.460  0.3171E+01  0.5847E+02
  11.470  0.3201E+01  0.5850E+02
  11.480  0.3153E+01  0.5854E+02
  11.490  0.3123E+01  0.5857E+02
  11.500  0.3091E+01  0.5860E+02
  11.510  0.3065E+01  0.5863E+02
  11.520  0.3041E+01  0.5866E+02
  11.530  0.3032E+01  0.5869E+02
  11.540  0.2981E+01  0.5872E+02
  11.550  0.2984E+01  0.5875E+02
  11.560  0.2983E+01  0.5878E+02
  11.570  0.2923E+01  0.5881E+02
  11.580  0.2884E+01  0.5884E+02
  11.590  0.2798E+01  0.5887E+02
  11.600  0.2751E+01  0.5889E+02
  11.610  0.2709E+01  0.5892E+02
  11.620  0.2636E+01  0.5895E+02
  11.630  0.2783E+01  0.5898E+02
  11.640  0.2729E+01  0.5900E+02
  11.650  0.4679E+01  0.5904E+02
  11.660  0.5871E+01  0.5909E+02
  11.670  0.6277E+01  0.5915E+02
  11.680  0.7112E+01  0.5922E+02
  11.690  0.7998E+01  0.5930E+02
  11.700  0.8203E+01  0.5938E+02
  11.710  0.8435E+01  0.5946E+02
  11.720  0.9061E+01  0.5955E+02
  11.730  0.9767E+01  0.5964E+02
  11.740  0.1098E+02  0.5975E+02
  11.750  0.1327E+02  0.5987E+02
  11.760  0.1370E+02  0.6002E+02
  11.770  0.1268E+02  0.6015E+02
  11.780  0.1235E+02  0.6028E+02
  11.790  0.1088E+02  0.6039E+02
  11.800  0.1036E+02  0.6050E+02
  11.810  0.1189E+02  0.6061E+02
  11.820  0.1351E+02  0.6073E+02
  11.830  0.1190E+02  0.6086E+02
  11.840  0.7976E+01  0.6097E+02
  11.850  0.7242E+01  0.6105E+02
  11.860  0.5409E+01  0.6111E+02
  11.870  0.5115E+01  0.6116E+02
  11.880  0.5136E+01  0.6121E+02
  11.890  0.5474E+01  0.6126E+02
  11.900  0.5552E+01  0.6132E+02
  11.910  0.4969E+01  0.6137E+02
  11.920  0.4685E+01  0.6142E+02
  11.930  0.4491E+01  0.6147E+02
  11.940  0.4344E+01  0.6151E+02
  11.950  0.4280E+01  0.6155E+02
  11.960  0.3884E+01  0.6160E+02
  11.970  0.3808E+01  0.6164E+02
  11.980  0.3719E+01  0.6167E+02
  11.990  0.3646E+01  0.6171E+02
  12.000  0.3597E+01  0.6175E+02
  12.010  0.3513E+01  0.6178E+02
  12.020  0.3444E+01  0.6182E+02
  12.030  0.3377E+01  0.6185E+02
  12.040  0.3289E+01  0.6188E+02
  12.050  0.3226E+01  0.6192E+02
  12.060  0.3167E+01  0.6195E+02
  12.070  0.3121E+01  0.6198E+02
  12.080  0.3073E+01  0.6201E+02
  12.090  0.3021E+01  0.6204E+02
  12.100  0.2969E+01  0.6207E+02
  12.110  0.2922E+01  0.6210E+02
  12.120  0.2880E+01  0.6213E+02
  12.130  0.2835E+01  0.6216E+02
  12.140  0.2808E+01  0.6219E+02
  12.150  0.2757E+01  0.6221E+02
  12.160  0.2706E+01  0.6224E+02
  12.170  0.2664E+01  0.6227E+02
  12.180  0.2621E+01  0.6229E+02
  12.190  0.2573E+01  0.6232E+02
  12.200  0.2535E+01  0.6235E+02
  12.210  0.2495E+01  0.6237E+02
  12.220  0.2452E+01  0.6240E+02
  12.230  0.2409E+01  0.6242E+02
  12.240  0.2362E+01  0.6244E+02
  12.250  0.2326E+01  0.6247E+02
  12.260  0.2279E+01  0.6249E+02
  12.270  0.2226E+01  0.6251E+02
  12.280  0.2175E+01  0.6254E+02
  12.290  0.2129E+01  0.6256E+02
  12.300  0.2068E+01  0.6258E+02
  12.310  0.2018E+01  0.6260E+02
  12.320  0.1979E+01  0.6262E+02
  12.330  0.1951E+01  0.6264E+02
  12.340  0.1950E+01  0.6266E+02
  12.350  0.1949E+01  0.6268E+02
  12.360  0.1948E+01  0.6270E+02
  12.370  0.1958E+01  0.6272E+02
  12.380  0.1974E+01  0.6274E+02
  12.390  0.1991E+01  0.6276E+02
  12.400  0.2012E+01  0.6278E+02
  12.410  0.2026E+01  0.6280E+02
  12.420  0.2052E+01  0.6282E+02
  12.430  0.2072E+01  0.6284E+02
  12.440  0.2100E+01  0.6286E+02
  12.450  0.2153E+01  0.6288E+02
  12.460  0.2210E+01  0.6290E+02
  12.470  0.2278E+01  0.6292E+02
  12.480  0.2378E+01  0.6295E+02
  12.490  0.2556E+01  0.6297E+02
  12.500  0.2796E+01  0.6300E+02
  12.510  0.2988E+01  0.6303E+02
  12.520  0.2530E+01  0.6305E+02
  12.530  0.2302E+01  0.6308E+02
  12.540  0.2193E+01  0.6310E+02
  12.550  0.2046E+01  0.6312E+02
  12.560  0.2094E+01  0.6314E+02
  12.570  0.1822E+01  0.6316E+02
  12.580  0.1769E+01  0.6318E+02
  12.590  0.1714E+01  0.6320E+02
  12.600  0.1666E+01  0.6321E+02
  12.610  0.1541E+01  0.6323E+02
  12.620  0.1554E+01  0.6325E+02
  12.630  0.1577E+01  0.6326E+02
  12.640  0.1614E+01  0.6328E+02
  12.650  0.1673E+01  0.6329E+02
  12.660  0.1779E+01  0.6331E+02
  12.670  0.1881E+01  0.6333E+02
  12.680  0.2026E+01  0.6335E+02
  12.690  0.2100E+01  0.6337E+02
  12.700  0.2160E+01  0.6339E+02
  12.710  0.2174E+01  0.6341E+02
  12.720  0.2198E+01  0.6343E+02
  12.730  0.2257E+01  0.6346E+02
  12.740  0.2317E+01  0.6348E+02
  12.750  0.2349E+01  0.6350E+02
  12.760  0.2420E+01  0.6353E+02
  12.770  0.2487E+01  0.6355E+02
  12.780  0.2559E+01  0.6358E+02
  12.790  0.2642E+01  0.6360E+02
  12.800  0.2827E+01  0.6363E+02
  12.810  0.2997E+01  0.6366E+02
  12.820  0.3118E+01  0.6369E+02
  12.830  0.3241E+01  0.6372E+02
  12.840  0.3297E+01  0.6375E+02
  12.850  0.3452E+01  0.6379E+02
  12.860  0.3411E+01  0.6382E+02
  12.870  0.3485E+01  0.6386E+02
  12.880  0.3496E+01  0.6389E+02
  12.890  0.3609E+01  0.6393E+02
  12.900  0.3930E+01  0.6396E+02
  12.910  0.3951E+01  0.6400E+02
  12.920  0.4439E+01  0.6404E+02
  12.930  0.5322E+01  0.6409E+02
  12.940  0.6226E+01  0.6415E+02
  12.950  0.5132E+01  0.6420E+02
  12.960  0.4954E+01  0.6425E+02
  12.970  0.4957E+01  0.6430E+02
  12.980  0.4985E+01  0.6435E+02
  12.990  0.4701E+01  0.6440E+02
  13.000  0.4637E+01  0.6445E+02
  13.010  0.4505E+01  0.6449E+02
  13.020  0.4381E+01  0.6454E+02
  13.030  0.4289E+01  0.6458E+02
  13.040  0.4225E+01  0.6462E+02
  13.050  0.4201E+01  0.6467E+02
  13.060  0.4196E+01  0.6471E+02
  13.070  0.4277E+01  0.6475E+02
  13.080  0.4305E+01  0.6479E+02
  13.090  0.4093E+01  0.6484E+02
  13.100  0.4108E+01  0.6488E+02
  13.110  0.4223E+01  0.6492E+02
  13.120  0.4701E+01  0.6496E+02
  13.130  0.5264E+01  0.6502E+02
  13.140  0.4720E+01  0.6507E+02
  13.150  0.4437E+01  0.6511E+02
  13.160  0.4222E+01  0.6516E+02
  13.170  0.4008E+01  0.6520E+02
  13.180  0.3983E+01  0.6524E+02
  13.190  0.3851E+01  0.6528E+02
  13.200  0.3719E+01  0.6532E+02
  13.210  0.3538E+01  0.6535E+02
  13.220  0.3456E+01  0.6539E+02
  13.230  0.3392E+01  0.6542E+02
  13.240  0.3343E+01  0.6545E+02
  13.250  0.3320E+01  0.6549E+02
  13.260  0.3288E+01  0.6552E+02
  13.270  0.3214E+01  0.6555E+02
  13.280  0.3292E+01  0.6559E+02
  13.290  0.3235E+01  0.6562E+02
  13.300  0.3229E+01  0.6565E+02
  13.310  0.3186E+01  0.6568E+02
  13.320  0.3144E+01  0.6572E+02
  13.330  0.3074E+01  0.6575E+02
  13.340  0.2949E+01  0.6578E+02
  13.350  0.3089E+01  0.6581E+02
  13.360  0.3202E+01  0.6584E+02
  13.370  0.3368E+01  0.6587E+02
  13.380  0.3360E+01  0.6590E+02
  13.390  0.3377E+01  0.6594E+02
  13.400  0.3466E+01  0.6597E+02
  13.410  0.3639E+01  0.6601E+02
  13.420  0.3739E+01  0.6604E+02
  13.430  0.3896E+01  0.6608E+02
  13.440  0.3954E+01  0.6612E+02
  13.450  0.4014E+01  0.6616E+02
  13.460  0.4305E+01  0.6620E+02
  13.470  0.4645E+01  0.6625E+02
  13.480  0.5101E+01  0.6630E+02
  13.490  0.6669E+01  0.6635E+02
  13.500  0.6248E+01  0.6642E+02
  13.510  0.5139E+01  0.6648E+02
  13.520  0.4955E+01  0.6653E+02
  13.530  0.4835E+01  0.6658E+02
  13.540  0.4806E+01  0.6663E+02
  13.550  0.4731E+01  0.6668E+02
  13.560  0.4711E+01  0.6672E+02
  13.570  0.4758E+01  0.6677E+02
  13.580  0.4890E+01  0.6682E+02
  13.590  0.4950E+01  0.6687E+02
  13.600  0.4927E+01  0.6692E+02
  13.610  0.4917E+01  0.6697E+02
  13.620  0.4898E+01  0.6702E+02
  13.630  0.5043E+01  0.6706E+02
  13.640  0.5195E+01  0.6712E+02
  13.650  0.5003E+01  0.6717E+02
  13.660  0.4760E+01  0.6722E+02
  13.670  0.4495E+01  0.6726E+02
  13.680  0.4243E+01  0.6731E+02
  13.690  0.4267E+01  0.6735E+02
  13.700  0.4187E+01  0.6739E+02
  13.710  0.4231E+01  0.6743E+02
  13.720  0.4286E+01  0.6748E+02
  13.730  0.4285E+01  0.6752E+02
  13.740  0.4114E+01  0.6756E+02
  13.750  0.3939E+01  0.6760E+02
  13.760  0.3770E+01  0.6764E+02
  13.770  0.3462E+01  0.6768E+02
  13.780  0.3136E+01  0.6771E+02
  13.790  0.2946E+01  0.6774E+02
  13.800  0.2869E+01  0.6777E+02
  13.810  0.2740E+01  0.6780E+02
  13.820  0.2615E+01  0.6782E+02
  13.830  0.2454E+01  0.6785E+02
  13.840  0.2336E+01  0.6787E+02
  13.850  0.2250E+01  0.6790E+02
  13.860  0.2200E+01  0.6792E+02
  13.870  0.2176E+01  0.6794E+02
  13.880  0.2116E+01  0.6796E+02
  13.890  0.2030E+01  0.6798E+02
  13.900  0.1999E+01  0.6800E+02
  13.910  0.1941E+01  0.6802E+02
  13.920  0.1853E+01  0.6804E+02
  13.930  0.1703E+01  0.6806E+02
  13.940  0.1632E+01  0.6807E+02
  13.950  0.1539E+01  0.6809E+02
  13.960  0.1475E+01  0.6811E+02
  13.970  0.1408E+01  0.6812E+02
  13.980  0.1319E+01  0.6813E+02
  13.990  0.1289E+01  0.6815E+02
  14.000  0.1211E+01  0.6816E+02
  14.010  0.1106E+01  0.6817E+02
  14.020  0.9935E+00  0.6818E+02
  14.030  0.9322E+00  0.6819E+02
  14.040  0.1112E+01  0.6820E+02
  14.050  0.1243E+01  0.6821E+02
  14.060  0.1272E+01  0.6823E+02
  14.070  0.1357E+01  0.6824E+02
  14.080  0.1449E+01  0.6825E+02
  14.090  0.1552E+01  0.6827E+02
  14.100  0.1658E+01  0.6828E+02
  14.110  0.1751E+01  0.6830E+02
  14.120  0.1855E+01  0.6832E+02
  14.130  0.1991E+01  0.6834E+02
  14.140  0.2075E+01  0.6836E+02
  14.150  0.2157E+01  0.6838E+02
  14.160  0.2155E+01  0.6840E+02
  14.170  0.2128E+01  0.6842E+02
  14.180  0.2104E+01  0.6844E+02
  14.190  0.2093E+01  0.6846E+02
  14.200  0.2098E+01  0.6849E+02
  14.210  0.2126E+01  0.6851E+02
  14.220  0.2158E+01  0.6853E+02
  14.230  0.2167E+01  0.6855E+02
  14.240  0.2157E+01  0.6857E+02
  14.250  0.2159E+01  0.6859E+02
  14.260  0.2191E+01  0.6861E+02
  14.270  0.2230E+01  0.6864E+02
  14.280  0.2276E+01  0.6866E+02
  14.290  0.2321E+01  0.6868E+02
  14.300  0.2355E+01  0.6871E+02
  14.310  0.2373E+01  0.6873E+02
  14.320  0.2374E+01  0.6875E+02
  14.330  0.2363E+01  0.6878E+02
  14.340  0.2381E+01  0.6880E+02
  14.350  0.2384E+01  0.6882E+02
  14.360  0.2219E+01  0.6885E+02
  14.370  0.2206E+01  0.6887E+02
  14.380  0.2237E+01  0.6889E+02
  14.390  0.2199E+01  0.6891E+02
  14.400  0.2177E+01  0.6894E+02
  14.410  0.2194E+01  0.6896E+02
  14.420  0.2219E+01  0.6898E+02
  14.430  0.2239E+01  0.6900E+02
  14.440  0.2259E+01  0.6902E+02
  14.450  0.2279E+01  0.6905E+02
  14.460  0.2277E+01  0.6907E+02
  14.470  0.2300E+01  0.6909E+02
  14.480  0.2313E+01  0.6912E+02
  14.490  0.2334E+01  0.6914E+02
  14.500  0.2361E+01  0.6916E+02
  14.510  0.2399E+01  0.6919E+02
  14.520  0.2459E+01  0.6921E+02
  14.530  0.2503E+01  0.6924E+02
  14.540  0.2545E+01  0.6926E+02
  14.550  0.2573E+01  0.6929E+02
  14.560  0.2594E+01  0.6931E+02
  14.570  0.2628E+01  0.6934E+02
  14.580  0.2689E+01  0.6937E+02
  14.590  0.2760E+01  0.6939E+02
  14.600  0.2827E+01  0.6942E+02
  14.610  0.2937E+01  0.6945E+02
  14.620  0.3126E+01  0.6948E+02
  14.630  0.3200E+01  0.6951E+02
  14.640  0.3299E+01  0.6954E+02
  14.650  0.3416E+01  0.6958E+02
  14.660  0.3734E+01  0.6961E+02
  14.670  0.3964E+01  0.6965E+02
  14.680  0.4137E+01  0.6969E+02
  14.690  0.4395E+01  0.6973E+02
  14.700  0.4741E+01  0.6978E+02
  14.710  0.4990E+01  0.6983E+02
  14.720  0.5037E+01  0.6988E+02
  14.730  0.5080E+01  0.6993E+02
  14.740  0.5121E+01  0.6998E+02
  14.750  0.5316E+01  0.7003E+02
  14.760  0.5477E+01  0.7009E+02
  14.770  0.5531E+01  0.7014E+02
  14.780  0.5622E+01  0.7020E+02
  14.790  0.5847E+01  0.7025E+02
  14.800  0.5556E+01  0.7031E+02
  14.810  0.5489E+01  0.7037E+02
  14.820  0.5483E+01  0.7042E+02
  14.830  0.6058E+01  0.7048E+02
  14.840  0.5913E+01  0.7054E+02
  14.850  0.5891E+01  0.7060E+02
  14.860  0.5867E+01  0.7066E+02
  14.870  0.5920E+01  0.7072E+02
  14.880  0.6032E+01  0.7078E+02
  14.890  0.6308E+01  0.7084E+02
  14.900  0.6230E+01  0.7090E+02
  14.910  0.6231E+01  0.7096E+02
  14.920  0.6268E+01  0.7103E+02
  14.930  0.6276E+01  0.7109E+02
  14.940  0.6212E+01  0.7115E+02
  14.950  0.6099E+01  0.7121E+02
  14.960  0.6142E+01  0.7127E+02
  14.970  0.5788E+01  0.7133E+02
  14.980  0.5831E+01  0.7139E+02
  14.990  0.5818E+01  0.7145E+02
  15.000  0.5928E+01  0.7151E+02
