#  E (eV)   dos(E)     Int dos(E) EFermi =    5.857 eV
 -15.000  0.0000E+00  0.0000E+00
 -14.990  0.0000E+00  0.0000E+00
 -14.980  0.0000E+00  0.0000E+00
 -14.970  0.0000E+00  0.0000E+00
 -14.960  0.0000E+00  0.0000E+00
 -14.950  0.0000E+00  0.0000E+00
 -14.940  0.0000E+00  0.0000E+00
 -14.930  0.0000E+00  0.0000E+00
 -14.920  0.0000E+00  0.0000E+00
 -14.910  0.0000E+00  0.0000E+00
 -14.900  0.0000E+00  0.0000E+00
 -14.890  0.0000E+00  0.0000E+00
 -14.880  0.0000E+00  0.0000E+00
 -14.870  0.0000E+00  0.0000E+00
 -14.860  0.0000E+00  0.0000E+00
 -14.850  0.0000E+00  0.0000E+00
 -14.840  0.0000E+00  0.0000E+00
 -14.830  0.0000E+00  0.0000E+00
 -14.820  0.0000E+00  0.0000E+00
 -14.810  0.0000E+00  0.0000E+00
 -14.800  0.0000E+00  0.0000E+00
 -14.790  0.0000E+00  0.0000E+00
 -14.780  0.0000E+00  0.0000E+00
 -14.770  0.0000E+00  0.0000E+00
 -14.760  0.0000E+00  0.0000E+00
 -14.750  0.0000E+00  0.0000E+00
 -14.740  0.0000E+00  0.0000E+00
 -14.730  0.0000E+00  0.0000E+00
 -14.720  0.0000E+00  0.0000E+00
 -14.710  0.0000E+00  0.0000E+00
 -14.700  0.0000E+00  0.0000E+00
 -14.690  0.0000E+00  0.0000E+00
 -14.680  0.0000E+00  0.0000E+00
 -14.670  0.0000E+00  0.0000E+00
 -14.660  0.0000E+00  0.0000E+00
 -14.650  0.0000E+00  0.0000E+00
 -14.640  0.0000E+00  0.0000E+00
 -14.630  0.0000E+00  0.0000E+00
 -14.620  0.0000E+00  0.0000E+00
 -14.610  0.0000E+00  0.0000E+00
 -14.600  0.0000E+00  0.0000E+00
 -14.590  0.0000E+00  0.0000E+00
 -14.580  0.0000E+00  0.0000E+00
 -14.570  0.0000E+00  0.0000E+00
 -14.560  0.0000E+00  0.0000E+00
 -14.550  0.0000E+00  0.0000E+00
 -14.540  0.0000E+00  0.0000E+00
 -14.530  0.0000E+00  0.0000E+00
 -14.520  0.0000E+00  0.0000E+00
 -14.510  0.1576E+01  0.7561E-02
 -14.500  0.1519E+01  0.2299E-01
 -14.490  0.1556E+01  0.3828E-01
 -14.480  0.1588E+01  0.5345E-01
 -14.470  0.1548E+01  0.6916E-01
 -14.460  0.1641E+01  0.8512E-01
 -14.450  0.1601E+01  0.1009E+00
 -14.440  0.1639E+01  0.1173E+00
 -14.430  0.1616E+01  0.1335E+00
 -14.420  0.1714E+01  0.1503E+00
 -14.410  0.1679E+01  0.1670E+00
 -14.400  0.1740E+01  0.1840E+00
 -14.390  0.1717E+01  0.2014E+00
 -14.380  0.1761E+01  0.2188E+00
 -14.370  0.1814E+01  0.2367E+00
 -14.360  0.1795E+01  0.2546E+00
 -14.350  0.1851E+01  0.2729E+00
 -14.340  0.1871E+01  0.2916E+00
 -14.330  0.1888E+01  0.3104E+00
 -14.320  0.1948E+01  0.3295E+00
 -14.310  0.1963E+01  0.3491E+00
 -14.300  0.1995E+01  0.3689E+00
 -14.290  0.2052E+01  0.3891E+00
 -14.280  0.2066E+01  0.4097E+00
 -14.270  0.2113E+01  0.4306E+00
 -14.260  0.3263E+01  0.4543E+00
 -14.250  0.3736E+01  0.4906E+00
 -14.240  0.3793E+01  0.5280E+00
 -14.230  0.3801E+01  0.5662E+00
 -14.220  0.3870E+01  0.6051E+00
 -14.210  0.3988E+01  0.6444E+00
 -14.200  0.4025E+01  0.6847E+00
 -14.190  0.4163E+01  0.7257E+00
 -14.180  0.4210E+01  0.7677E+00
 -14.170  0.4355E+01  0.8104E+00
 -14.160  0.4413E+01  0.8543E+00
 -14.150  0.4526E+01  0.8990E+00
 -14.140  0.4645E+01  0.9451E+00
 -14.130  0.4774E+01  0.9922E+00
 -14.120  0.4942E+01  0.1041E+01
 -14.110  0.5042E+01  0.1091E+01
 -14.100  0.5234E+01  0.1142E+01
 -14.090  0.5434E+01  0.1195E+01
 -14.080  0.5582E+01  0.1250E+01
 -14.070  0.5843E+01  0.1307E+01
 -14.060  0.6118E+01  0.1367E+01
 -14.050  0.6395E+01  0.1429E+01
 -14.040  0.6747E+01  0.1495E+01
 -14.030  0.7140E+01  0.1565E+01
 -14.020  0.7713E+01  0.1639E+01
 -14.010  0.8432E+01  0.1720E+01
 -14.000  0.9554E+01  0.1809E+01
 -13.990  0.1145E+02  0.1912E+01
 -13.980  0.1431E+02  0.2056E+01
 -13.970  0.1072E+02  0.2176E+01
 -13.960  0.9657E+01  0.2278E+01
 -13.950  0.9142E+01  0.2372E+01
 -13.940  0.8596E+01  0.2459E+01
 -13.930  0.8486E+01  0.2544E+01
 -13.920  0.7800E+01  0.2625E+01
 -13.910  0.2714E+01  0.2681E+01
 -13.900  0.2779E+01  0.2708E+01
 -13.890  0.2871E+01  0.2737E+01
 -13.880  0.2978E+01  0.2766E+01
 -13.870  0.3065E+01  0.2796E+01
 -13.860  0.3192E+01  0.2827E+01
 -13.850  0.3324E+01  0.2860E+01
 -13.840  0.3454E+01  0.2894E+01
 -13.830  0.3623E+01  0.2929E+01
 -13.820  0.3813E+01  0.2966E+01
 -13.810  0.4008E+01  0.3005E+01
 -13.800  0.4240E+01  0.3047E+01
 -13.790  0.4555E+01  0.3091E+01
 -13.780  0.4896E+01  0.3138E+01
 -13.770  0.5338E+01  0.3189E+01
 -13.760  0.5909E+01  0.3245E+01
 -13.750  0.6612E+01  0.3307E+01
 -13.740  0.8031E+01  0.3380E+01
 -13.730  0.1107E+02  0.3472E+01
 -13.720  0.9274E+01  0.3595E+01
 -13.710  0.7733E+01  0.3682E+01
 -13.700  0.6937E+01  0.3755E+01
 -13.690  0.6317E+01  0.3822E+01
 -13.680  0.5679E+01  0.3883E+01
 -13.670  0.5665E+01  0.3940E+01
 -13.660  0.4236E+01  0.3993E+01
 -13.650  0.0000E+00  0.4000E+01
 -13.640  0.0000E+00  0.4000E+01
 -13.630  0.0000E+00  0.4000E+01
 -13.620  0.0000E+00  0.4000E+01
 -13.610  0.0000E+00  0.4000E+01
 -13.600  0.0000E+00  0.4000E+01
 -13.590  0.0000E+00  0.4000E+01
 -13.580  0.0000E+00  0.4000E+01
 -13.570  0.0000E+00  0.4000E+01
 -13.560  0.0000E+00  0.4000E+01
 -13.550  0.0000E+00  0.4000E+01
 -13.540  0.0000E+00  0.4000E+01
 -13.530  0.0000E+00  0.4000E+01
 -13.520  0.0000E+00  0.4000E+01
 -13.510  0.0000E+00  0.4000E+01
 -13.500  0.0000E+00  0.4000E+01
 -13.490  0.0000E+00  0.4000E+01
 -13.480  0.0000E+00  0.4000E+01
 -13.470  0.0000E+00  0.4000E+01
 -13.460  0.0000E+00  0.4000E+01
 -13.450  0.0000E+00  0.4000E+01
 -13.440  0.0000E+00  0.4000E+01
 -13.430  0.0000E+00  0.4000E+01
 -13.420  0.0000E+00  0.4000E+01
 -13.410  0.0000E+00  0.4000E+01
 -13.400  0.0000E+00  0.4000E+01
 -13.390  0.0000E+00  0.4000E+01
 -13.380  0.0000E+00  0.4000E+01
 -13.370  0.0000E+00  0.4000E+01
 -13.360  0.0000E+00  0.4000E+01
 -13.350  0.0000E+00  0.4000E+01
 -13.340  0.0000E+00  0.4000E+01
 -13.330  0.0000E+00  0.4000E+01
 -13.320  0.0000E+00  0.4000E+01
 -13.310  0.0000E+00  0.4000E+01
 -13.300  0.0000E+00  0.4000E+01
 -13.290  0.0000E+00  0.4000E+01
 -13.280  0.0000E+00  0.4000E+01
 -13.270  0.0000E+00  0.4000E+01
 -13.260  0.0000E+00  0.4000E+01
 -13.250  0.0000E+00  0.4000E+01
 -13.240  0.0000E+00  0.4000E+01
 -13.230  0.0000E+00  0.4000E+01
 -13.220  0.0000E+00  0.4000E+01
 -13.210  0.0000E+00  0.4000E+01
 -13.200  0.0000E+00  0.4000E+01
 -13.190  0.0000E+00  0.4000E+01
 -13.180  0.0000E+00  0.4000E+01
 -13.170  0.0000E+00  0.4000E+01
 -13.160  0.0000E+00  0.4000E+01
 -13.150  0.0000E+00  0.4000E+01
 -13.140  0.0000E+00  0.4000E+01
 -13.130  0.0000E+00  0.4000E+01
 -13.120  0.0000E+00  0.4000E+01
 -13.110  0.0000E+00  0.4000E+01
 -13.100  0.0000E+00  0.4000E+01
 -13.090  0.0000E+00  0.4000E+01
 -13.080  0.0000E+00  0.4000E+01
 -13.070  0.0000E+00  0.4000E+01
 -13.060  0.0000E+00  0.4000E+01
 -13.050  0.0000E+00  0.4000E+01
 -13.040  0.0000E+00  0.4000E+01
 -13.030  0.0000E+00  0.4000E+01
 -13.020  0.0000E+00  0.4000E+01
 -13.010  0.0000E+00  0.4000E+01
 -13.000  0.0000E+00  0.4000E+01
 -12.990  0.0000E+00  0.4000E+01
 -12.980  0.0000E+00  0.4000E+01
 -12.970  0.0000E+00  0.4000E+01
 -12.960  0.0000E+00  0.4000E+01
 -12.950  0.0000E+00  0.4000E+01
 -12.940  0.0000E+00  0.4000E+01
 -12.930  0.0000E+00  0.4000E+01
 -12.920  0.0000E+00  0.4000E+01
 -12.910  0.0000E+00  0.4000E+01
 -12.900  0.0000E+00  0.4000E+01
 -12.890  0.0000E+00  0.4000E+01
 -12.880  0.0000E+00  0.4000E+01
 -12.870  0.0000E+00  0.4000E+01
 -12.860  0.0000E+00  0.4000E+01
 -12.850  0.0000E+00  0.4000E+01
 -12.840  0.0000E+00  0.4000E+01
 -12.830  0.0000E+00  0.4000E+01
 -12.820  0.0000E+00  0.4000E+01
 -12.810  0.0000E+00  0.4000E+01
 -12.800  0.0000E+00  0.4000E+01
 -12.790  0.0000E+00  0.4000E+01
 -12.780  0.0000E+00  0.4000E+01
 -12.770  0.0000E+00  0.4000E+01
 -12.760  0.0000E+00  0.4000E+01
 -12.750  0.0000E+00  0.4000E+01
 -12.740  0.0000E+00  0.4000E+01
 -12.730  0.0000E+00  0.4000E+01
 -12.720  0.0000E+00  0.4000E+01
 -12.710  0.0000E+00  0.4000E+01
 -12.700  0.0000E+00  0.4000E+01
 -12.690  0.0000E+00  0.4000E+01
 -12.680  0.0000E+00  0.4000E+01
 -12.670  0.0000E+00  0.4000E+01
 -12.660  0.0000E+00  0.4000E+01
 -12.650  0.0000E+00  0.4000E+01
 -12.640  0.0000E+00  0.4000E+01
 -12.630  0.0000E+00  0.4000E+01
 -12.620  0.0000E+00  0.4000E+01
 -12.610  0.0000E+00  0.4000E+01
 -12.600  0.0000E+00  0.4000E+01
 -12.590  0.0000E+00  0.4000E+01
 -12.580  0.0000E+00  0.4000E+01
 -12.570  0.0000E+00  0.4000E+01
 -12.560  0.0000E+00  0.4000E+01
 -12.550  0.0000E+00  0.4000E+01
 -12.540  0.0000E+00  0.4000E+01
 -12.530  0.0000E+00  0.4000E+01
 -12.520  0.0000E+00  0.4000E+01
 -12.510  0.0000E+00  0.4000E+01
 -12.500  0.0000E+00  0.4000E+01
 -12.490  0.0000E+00  0.4000E+01
 -12.480  0.0000E+00  0.4000E+01
 -12.470  0.0000E+00  0.4000E+01
 -12.460  0.0000E+00  0.4000E+01
 -12.450  0.0000E+00  0.4000E+01
 -12.440  0.0000E+00  0.4000E+01
 -12.430  0.0000E+00  0.4000E+01
 -12.420  0.0000E+00  0.4000E+01
 -12.410  0.0000E+00  0.4000E+01
 -12.400  0.0000E+00  0.4000E+01
 -12.390  0.0000E+00  0.4000E+01
 -12.380  0.0000E+00  0.4000E+01
 -12.370  0.0000E+00  0.4000E+01
 -12.360  0.0000E+00  0.4000E+01
 -12.350  0.0000E+00  0.4000E+01
 -12.340  0.0000E+00  0.4000E+01
 -12.330  0.0000E+00  0.4000E+01
 -12.320  0.0000E+00  0.4000E+01
 -12.310  0.0000E+00  0.4000E+01
 -12.300  0.0000E+00  0.4000E+01
 -12.290  0.0000E+00  0.4000E+01
 -12.280  0.0000E+00  0.4000E+01
 -12.270  0.0000E+00  0.4000E+01
 -12.260  0.0000E+00  0.4000E+01
 -12.250  0.0000E+00  0.4000E+01
 -12.240  0.0000E+00  0.4000E+01
 -12.230  0.0000E+00  0.4000E+01
 -12.220  0.0000E+00  0.4000E+01
 -12.210  0.0000E+00  0.4000E+01
 -12.200  0.0000E+00  0.4000E+01
 -12.190  0.0000E+00  0.4000E+01
 -12.180  0.0000E+00  0.4000E+01
 -12.170  0.0000E+00  0.4000E+01
 -12.160  0.0000E+00  0.4000E+01
 -12.150  0.0000E+00  0.4000E+01
 -12.140  0.0000E+00  0.4000E+01
 -12.130  0.0000E+00  0.4000E+01
 -12.120  0.0000E+00  0.4000E+01
 -12.110  0.0000E+00  0.4000E+01
 -12.100  0.0000E+00  0.4000E+01
 -12.090  0.0000E+00  0.4000E+01
 -12.080  0.0000E+00  0.4000E+01
 -12.070  0.0000E+00  0.4000E+01
 -12.060  0.0000E+00  0.4000E+01
 -12.050  0.0000E+00  0.4000E+01
 -12.040  0.0000E+00  0.4000E+01
 -12.030  0.0000E+00  0.4000E+01
 -12.020  0.0000E+00  0.4000E+01
 -12.010  0.0000E+00  0.4000E+01
 -12.000  0.0000E+00  0.4000E+01
 -11.990  0.0000E+00  0.4000E+01
 -11.980  0.0000E+00  0.4000E+01
 -11.970  0.0000E+00  0.4000E+01
 -11.960  0.0000E+00  0.4000E+01
 -11.950  0.0000E+00  0.4000E+01
 -11.940  0.0000E+00  0.4000E+01
 -11.930  0.0000E+00  0.4000E+01
 -11.920  0.0000E+00  0.4000E+01
 -11.910  0.0000E+00  0.4000E+01
 -11.900  0.0000E+00  0.4000E+01
 -11.890  0.0000E+00  0.4000E+01
 -11.880  0.0000E+00  0.4000E+01
 -11.870  0.0000E+00  0.4000E+01
 -11.860  0.0000E+00  0.4000E+01
 -11.850  0.0000E+00  0.4000E+01
 -11.840  0.0000E+00  0.4000E+01
 -11.830  0.0000E+00  0.4000E+01
 -11.820  0.0000E+00  0.4000E+01
 -11.810  0.0000E+00  0.4000E+01
 -11.800  0.0000E+00  0.4000E+01
 -11.790  0.0000E+00  0.4000E+01
 -11.780  0.0000E+00  0.4000E+01
 -11.770  0.0000E+00  0.4000E+01
 -11.760  0.0000E+00  0.4000E+01
 -11.750  0.0000E+00  0.4000E+01
 -11.740  0.0000E+00  0.4000E+01
 -11.730  0.0000E+00  0.4000E+01
 -11.720  0.0000E+00  0.4000E+01
 -11.710  0.0000E+00  0.4000E+01
 -11.700  0.0000E+00  0.4000E+01
 -11.690  0.0000E+00  0.4000E+01
 -11.680  0.0000E+00  0.4000E+01
 -11.670  0.0000E+00  0.4000E+01
 -11.660  0.0000E+00  0.4000E+01
 -11.650  0.0000E+00  0.4000E+01
 -11.640  0.0000E+00  0.4000E+01
 -11.630  0.0000E+00  0.4000E+01
 -11.620  0.0000E+00  0.4000E+01
 -11.610  0.0000E+00  0.4000E+01
 -11.600  0.0000E+00  0.4000E+01
 -11.590  0.0000E+00  0.4000E+01
 -11.580  0.0000E+00  0.4000E+01
 -11.570  0.0000E+00  0.4000E+01
 -11.560  0.0000E+00  0.4000E+01
 -11.550  0.0000E+00  0.4000E+01
 -11.540  0.0000E+00  0.4000E+01
 -11.530  0.0000E+00  0.4000E+01
 -11.520  0.0000E+00  0.4000E+01
 -11.510  0.0000E+00  0.4000E+01
 -11.500  0.0000E+00  0.4000E+01
 -11.490  0.0000E+00  0.4000E+01
 -11.480  0.0000E+00  0.4000E+01
 -11.470  0.0000E+00  0.4000E+01
 -11.460  0.0000E+00  0.4000E+01
 -11.450  0.0000E+00  0.4000E+01
 -11.440  0.0000E+00  0.4000E+01
 -11.430  0.0000E+00  0.4000E+01
 -11.420  0.0000E+00  0.4000E+01
 -11.410  0.0000E+00  0.4000E+01
 -11.400  0.0000E+00  0.4000E+01
 -11.390  0.0000E+00  0.4000E+01
 -11.380  0.0000E+00  0.4000E+01
 -11.370  0.0000E+00  0.4000E+01
 -11.360  0.0000E+00  0.4000E+01
 -11.350  0.0000E+00  0.4000E+01
 -11.340  0.0000E+00  0.4000E+01
 -11.330  0.0000E+00  0.4000E+01
 -11.320  0.0000E+00  0.4000E+01
 -11.310  0.0000E+00  0.4000E+01
 -11.300  0.0000E+00  0.4000E+01
 -11.290  0.0000E+00  0.4000E+01
 -11.280  0.0000E+00  0.4000E+01
 -11.270  0.0000E+00  0.4000E+01
 -11.260  0.0000E+00  0.4000E+01
 -11.250  0.0000E+00  0.4000E+01
 -11.240  0.0000E+00  0.4000E+01
 -11.230  0.0000E+00  0.4000E+01
 -11.220  0.0000E+00  0.4000E+01
 -11.210  0.0000E+00  0.4000E+01
 -11.200  0.0000E+00  0.4000E+01
 -11.190  0.0000E+00  0.4000E+01
 -11.180  0.0000E+00  0.4000E+01
 -11.170  0.0000E+00  0.4000E+01
 -11.160  0.0000E+00  0.4000E+01
 -11.150  0.0000E+00  0.4000E+01
 -11.140  0.0000E+00  0.4000E+01
 -11.130  0.0000E+00  0.4000E+01
 -11.120  0.0000E+00  0.4000E+01
 -11.110  0.0000E+00  0.4000E+01
 -11.100  0.0000E+00  0.4000E+01
 -11.090  0.0000E+00  0.4000E+01
 -11.080  0.0000E+00  0.4000E+01
 -11.070  0.0000E+00  0.4000E+01
 -11.060  0.0000E+00  0.4000E+01
 -11.050  0.0000E+00  0.4000E+01
 -11.040  0.0000E+00  0.4000E+01
 -11.030  0.0000E+00  0.4000E+01
 -11.020  0.0000E+00  0.4000E+01
 -11.010  0.0000E+00  0.4000E+01
 -11.000  0.0000E+00  0.4000E+01
 -10.990  0.0000E+00  0.4000E+01
 -10.980  0.0000E+00  0.4000E+01
 -10.970  0.0000E+00  0.4000E+01
 -10.960  0.0000E+00  0.4000E+01
 -10.950  0.0000E+00  0.4000E+01
 -10.940  0.0000E+00  0.4000E+01
 -10.930  0.0000E+00  0.4000E+01
 -10.920  0.0000E+00  0.4000E+01
 -10.910  0.0000E+00  0.4000E+01
 -10.900  0.0000E+00  0.4000E+01
 -10.890  0.0000E+00  0.4000E+01
 -10.880  0.0000E+00  0.4000E+01
 -10.870  0.0000E+00  0.4000E+01
 -10.860  0.0000E+00  0.4000E+01
 -10.850  0.0000E+00  0.4000E+01
 -10.840  0.0000E+00  0.4000E+01
 -10.830  0.0000E+00  0.4000E+01
 -10.820  0.0000E+00  0.4000E+01
 -10.810  0.0000E+00  0.4000E+01
 -10.800  0.0000E+00  0.4000E+01
 -10.790  0.0000E+00  0.4000E+01
 -10.780  0.0000E+00  0.4000E+01
 -10.770  0.0000E+00  0.4000E+01
 -10.760  0.0000E+00  0.4000E+01
 -10.750  0.0000E+00  0.4000E+01
 -10.740  0.0000E+00  0.4000E+01
 -10.730  0.0000E+00  0.4000E+01
 -10.720  0.0000E+00  0.4000E+01
 -10.710  0.0000E+00  0.4000E+01
 -10.700  0.0000E+00  0.4000E+01
 -10.690  0.0000E+00  0.4000E+01
 -10.680  0.0000E+00  0.4000E+01
 -10.670  0.0000E+00  0.4000E+01
 -10.660  0.0000E+00  0.4000E+01
 -10.650  0.0000E+00  0.4000E+01
 -10.640  0.0000E+00  0.4000E+01
 -10.630  0.0000E+00  0.4000E+01
 -10.620  0.0000E+00  0.4000E+01
 -10.610  0.0000E+00  0.4000E+01
 -10.600  0.0000E+00  0.4000E+01
 -10.590  0.0000E+00  0.4000E+01
 -10.580  0.0000E+00  0.4000E+01
 -10.570  0.0000E+00  0.4000E+01
 -10.560  0.0000E+00  0.4000E+01
 -10.550  0.0000E+00  0.4000E+01
 -10.540  0.0000E+00  0.4000E+01
 -10.530  0.0000E+00  0.4000E+01
 -10.520  0.0000E+00  0.4000E+01
 -10.510  0.0000E+00  0.4000E+01
 -10.500  0.0000E+00  0.4000E+01
 -10.490  0.0000E+00  0.4000E+01
 -10.480  0.0000E+00  0.4000E+01
 -10.470  0.0000E+00  0.4000E+01
 -10.460  0.0000E+00  0.4000E+01
 -10.450  0.0000E+00  0.4000E+01
 -10.440  0.0000E+00  0.4000E+01
 -10.430  0.0000E+00  0.4000E+01
 -10.420  0.0000E+00  0.4000E+01
 -10.410  0.0000E+00  0.4000E+01
 -10.400  0.0000E+00  0.4000E+01
 -10.390  0.0000E+00  0.4000E+01
 -10.380  0.0000E+00  0.4000E+01
 -10.370  0.0000E+00  0.4000E+01
 -10.360  0.0000E+00  0.4000E+01
 -10.350  0.0000E+00  0.4000E+01
 -10.340  0.0000E+00  0.4000E+01
 -10.330  0.0000E+00  0.4000E+01
 -10.320  0.0000E+00  0.4000E+01
 -10.310  0.0000E+00  0.4000E+01
 -10.300  0.0000E+00  0.4000E+01
 -10.290  0.0000E+00  0.4000E+01
 -10.280  0.0000E+00  0.4000E+01
 -10.270  0.0000E+00  0.4000E+01
 -10.260  0.0000E+00  0.4000E+01
 -10.250  0.0000E+00  0.4000E+01
 -10.240  0.0000E+00  0.4000E+01
 -10.230  0.0000E+00  0.4000E+01
 -10.220  0.0000E+00  0.4000E+01
 -10.210  0.0000E+00  0.4000E+01
 -10.200  0.0000E+00  0.4000E+01
 -10.190  0.0000E+00  0.4000E+01
 -10.180  0.0000E+00  0.4000E+01
 -10.170  0.0000E+00  0.4000E+01
 -10.160  0.0000E+00  0.4000E+01
 -10.150  0.0000E+00  0.4000E+01
 -10.140  0.0000E+00  0.4000E+01
 -10.130  0.0000E+00  0.4000E+01
 -10.120  0.0000E+00  0.4000E+01
 -10.110  0.0000E+00  0.4000E+01
 -10.100  0.0000E+00  0.4000E+01
 -10.090  0.0000E+00  0.4000E+01
 -10.080  0.0000E+00  0.4000E+01
 -10.070  0.0000E+00  0.4000E+01
 -10.060  0.0000E+00  0.4000E+01
 -10.050  0.0000E+00  0.4000E+01
 -10.040  0.0000E+00  0.4000E+01
 -10.030  0.0000E+00  0.4000E+01
 -10.020  0.0000E+00  0.4000E+01
 -10.010  0.0000E+00  0.4000E+01
 -10.000  0.0000E+00  0.4000E+01
  -9.990  0.0000E+00  0.4000E+01
  -9.980  0.0000E+00  0.4000E+01
  -9.970  0.0000E+00  0.4000E+01
  -9.960  0.0000E+00  0.4000E+01
  -9.950  0.0000E+00  0.4000E+01
  -9.940  0.0000E+00  0.4000E+01
  -9.930  0.0000E+00  0.4000E+01
  -9.920  0.0000E+00  0.4000E+01
  -9.910  0.0000E+00  0.4000E+01
  -9.900  0.0000E+00  0.4000E+01
  -9.890  0.0000E+00  0.4000E+01
  -9.880  0.0000E+00  0.4000E+01
  -9.870  0.0000E+00  0.4000E+01
  -9.860  0.0000E+00  0.4000E+01
  -9.850  0.0000E+00  0.4000E+01
  -9.840  0.0000E+00  0.4000E+01
  -9.830  0.0000E+00  0.4000E+01
  -9.820  0.0000E+00  0.4000E+01
  -9.810  0.0000E+00  0.4000E+01
  -9.800  0.0000E+00  0.4000E+01
  -9.790  0.0000E+00  0.4000E+01
  -9.780  0.0000E+00  0.4000E+01
  -9.770  0.0000E+00  0.4000E+01
  -9.760  0.0000E+00  0.4000E+01
  -9.750  0.0000E+00  0.4000E+01
  -9.740  0.0000E+00  0.4000E+01
  -9.730  0.0000E+00  0.4000E+01
  -9.720  0.0000E+00  0.4000E+01
  -9.710  0.0000E+00  0.4000E+01
  -9.700  0.0000E+00  0.4000E+01
  -9.690  0.0000E+00  0.4000E+01
  -9.680  0.0000E+00  0.4000E+01
  -9.670  0.0000E+00  0.4000E+01
  -9.660  0.0000E+00  0.4000E+01
  -9.650  0.0000E+00  0.4000E+01
  -9.640  0.0000E+00  0.4000E+01
  -9.630  0.0000E+00  0.4000E+01
  -9.620  0.0000E+00  0.4000E+01
  -9.610  0.0000E+00  0.4000E+01
  -9.600  0.0000E+00  0.4000E+01
  -9.590  0.0000E+00  0.4000E+01
  -9.580  0.0000E+00  0.4000E+01
  -9.570  0.0000E+00  0.4000E+01
  -9.560  0.0000E+00  0.4000E+01
  -9.550  0.0000E+00  0.4000E+01
  -9.540  0.0000E+00  0.4000E+01
  -9.530  0.0000E+00  0.4000E+01
  -9.520  0.0000E+00  0.4000E+01
  -9.510  0.0000E+00  0.4000E+01
  -9.500  0.0000E+00  0.4000E+01
  -9.490  0.0000E+00  0.4000E+01
  -9.480  0.0000E+00  0.4000E+01
  -9.470  0.0000E+00  0.4000E+01
  -9.460  0.0000E+00  0.4000E+01
  -9.450  0.0000E+00  0.4000E+01
  -9.440  0.0000E+00  0.4000E+01
  -9.430  0.0000E+00  0.4000E+01
  -9.420  0.0000E+00  0.4000E+01
  -9.410  0.0000E+00  0.4000E+01
  -9.400  0.0000E+00  0.4000E+01
  -9.390  0.0000E+00  0.4000E+01
  -9.380  0.0000E+00  0.4000E+01
  -9.370  0.0000E+00  0.4000E+01
  -9.360  0.0000E+00  0.4000E+01
  -9.350  0.0000E+00  0.4000E+01
  -9.340  0.0000E+00  0.4000E+01
  -9.330  0.0000E+00  0.4000E+01
  -9.320  0.0000E+00  0.4000E+01
  -9.310  0.0000E+00  0.4000E+01
  -9.300  0.0000E+00  0.4000E+01
  -9.290  0.0000E+00  0.4000E+01
  -9.280  0.0000E+00  0.4000E+01
  -9.270  0.0000E+00  0.4000E+01
  -9.260  0.0000E+00  0.4000E+01
  -9.250  0.0000E+00  0.4000E+01
  -9.240  0.0000E+00  0.4000E+01
  -9.230  0.0000E+00  0.4000E+01
  -9.220  0.0000E+00  0.4000E+01
  -9.210  0.0000E+00  0.4000E+01
  -9.200  0.0000E+00  0.4000E+01
  -9.190  0.0000E+00  0.4000E+01
  -9.180  0.0000E+00  0.4000E+01
  -9.170  0.0000E+00  0.4000E+01
  -9.160  0.0000E+00  0.4000E+01
  -9.150  0.0000E+00  0.4000E+01
  -9.140  0.0000E+00  0.4000E+01
  -9.130  0.0000E+00  0.4000E+01
  -9.120  0.0000E+00  0.4000E+01
  -9.110  0.0000E+00  0.4000E+01
  -9.100  0.0000E+00  0.4000E+01
  -9.090  0.0000E+00  0.4000E+01
  -9.080  0.0000E+00  0.4000E+01
  -9.070  0.0000E+00  0.4000E+01
  -9.060  0.0000E+00  0.4000E+01
  -9.050  0.2985E-03  0.4000E+01
  -9.040  0.4833E+00  0.4004E+01
  -9.030  0.6041E+00  0.4010E+01
  -9.020  0.5471E+00  0.4015E+01
  -9.010  0.5779E+00  0.4021E+01
  -9.000  0.5235E+00  0.4027E+01
  -8.990  0.5733E+00  0.4032E+01
  -8.980  0.5754E+00  0.4038E+01
  -8.970  0.5515E+00  0.4044E+01
  -8.960  0.5486E+00  0.4049E+01
  -8.950  0.5884E+00  0.4055E+01
  -8.940  0.5669E+00  0.4061E+01
  -8.930  0.5564E+00  0.4066E+01
  -8.920  0.5629E+00  0.4072E+01
  -8.910  0.5701E+00  0.4078E+01
  -8.900  0.6001E+00  0.4083E+01
  -8.890  0.5665E+00  0.4089E+01
  -8.880  0.5557E+00  0.4095E+01
  -8.870  0.5700E+00  0.4100E+01
  -8.860  0.5788E+00  0.4106E+01
  -8.850  0.5877E+00  0.4112E+01
  -8.840  0.5792E+00  0.4118E+01
  -8.830  0.5715E+00  0.4124E+01
  -8.820  0.5695E+00  0.4129E+01
  -8.810  0.5773E+00  0.4135E+01
  -8.800  0.5863E+00  0.4141E+01
  -8.790  0.5954E+00  0.4147E+01
  -8.780  0.5821E+00  0.4153E+01
  -8.770  0.5793E+00  0.4158E+01
  -8.760  0.5801E+00  0.4164E+01
  -8.750  0.1026E+01  0.4173E+01
  -8.740  0.1299E+01  0.4184E+01
  -8.730  0.1120E+01  0.4196E+01
  -8.720  0.1219E+01  0.4208E+01
  -8.710  0.1128E+01  0.4219E+01
  -8.700  0.1143E+01  0.4230E+01
  -8.690  0.1200E+01  0.4242E+01
  -8.680  0.1143E+01  0.4254E+01
  -8.670  0.1142E+01  0.4265E+01
  -8.660  0.1175E+01  0.4277E+01
  -8.650  0.1182E+01  0.4289E+01
  -8.640  0.1151E+01  0.4300E+01
  -8.630  0.1161E+01  0.4312E+01
  -8.620  0.1164E+01  0.4324E+01
  -8.610  0.1187E+01  0.4335E+01
  -8.600  0.1170E+01  0.4347E+01
  -8.590  0.1164E+01  0.4359E+01
  -8.580  0.1177E+01  0.4370E+01
  -8.570  0.1190E+01  0.4382E+01
  -8.560  0.1202E+01  0.4394E+01
  -8.550  0.1194E+01  0.4406E+01
  -8.540  0.1182E+01  0.4418E+01
  -8.530  0.1180E+01  0.4430E+01
  -8.520  0.1178E+01  0.4442E+01
  -8.510  0.1196E+01  0.4454E+01
  -8.500  0.1211E+01  0.4466E+01
  -8.490  0.1217E+01  0.4478E+01
  -8.480  0.1207E+01  0.4490E+01
  -8.470  0.1211E+01  0.4502E+01
  -8.460  0.1202E+01  0.4514E+01
  -8.450  0.1206E+01  0.4526E+01
  -8.440  0.1217E+01  0.4538E+01
  -8.430  0.1228E+01  0.4550E+01
  -8.420  0.1224E+01  0.4563E+01
  -8.410  0.1216E+01  0.4575E+01
  -8.400  0.1221E+01  0.4587E+01
  -8.390  0.1232E+01  0.4599E+01
  -8.380  0.1240E+01  0.4612E+01
  -8.370  0.1238E+01  0.4624E+01
  -8.360  0.1238E+01  0.4637E+01
  -8.350  0.1249E+01  0.4649E+01
  -8.340  0.1243E+01  0.4661E+01
  -8.330  0.1243E+01  0.4674E+01
  -8.320  0.1244E+01  0.4686E+01
  -8.310  0.1250E+01  0.4699E+01
  -8.300  0.1258E+01  0.4711E+01
  -8.290  0.1266E+01  0.4724E+01
  -8.280  0.1277E+01  0.4737E+01
  -8.270  0.1277E+01  0.4749E+01
  -8.260  0.1273E+01  0.4762E+01
  -8.250  0.1270E+01  0.4775E+01
  -8.240  0.1271E+01  0.4788E+01
  -8.230  0.1276E+01  0.4800E+01
  -8.220  0.1280E+01  0.4813E+01
  -8.210  0.1289E+01  0.4826E+01
  -8.200  0.1299E+01  0.4839E+01
  -8.190  0.1306E+01  0.4852E+01
  -8.180  0.1314E+01  0.4865E+01
  -8.170  0.1305E+01  0.4878E+01
  -8.160  0.1307E+01  0.4891E+01
  -8.150  0.1309E+01  0.4904E+01
  -8.140  0.1312E+01  0.4917E+01
  -8.130  0.1316E+01  0.4931E+01
  -8.120  0.1320E+01  0.4944E+01
  -8.110  0.1329E+01  0.4957E+01
  -8.100  0.1340E+01  0.4970E+01
  -8.090  0.1349E+01  0.4984E+01
  -8.080  0.1352E+01  0.4997E+01
  -8.070  0.1351E+01  0.5011E+01
  -8.060  0.1347E+01  0.5024E+01
  -8.050  0.1352E+01  0.5038E+01
  -8.040  0.1359E+01  0.5051E+01
  -8.030  0.1365E+01  0.5065E+01
  -8.020  0.1370E+01  0.5079E+01
  -8.010  0.1376E+01  0.5092E+01
  -8.000  0.1381E+01  0.5106E+01
  -7.990  0.1391E+01  0.5120E+01
  -7.980  0.1399E+01  0.5134E+01
  -7.970  0.1402E+01  0.5148E+01
  -7.960  0.1407E+01  0.5162E+01
  -7.950  0.1405E+01  0.5176E+01
  -7.940  0.1407E+01  0.5190E+01
  -7.930  0.1415E+01  0.5204E+01
  -7.920  0.1426E+01  0.5218E+01
  -7.910  0.1434E+01  0.5233E+01
  -7.900  0.1441E+01  0.5247E+01
  -7.890  0.1448E+01  0.5262E+01
  -7.880  0.1456E+01  0.5276E+01
  -7.870  0.1457E+01  0.5291E+01
  -7.860  0.1467E+01  0.5305E+01
  -7.850  0.1474E+01  0.5320E+01
  -7.840  0.1477E+01  0.5335E+01
  -7.830  0.1481E+01  0.5349E+01
  -7.820  0.1486E+01  0.5364E+01
  -7.810  0.1496E+01  0.5379E+01
  -7.800  0.1508E+01  0.5394E+01
  -7.790  0.1519E+01  0.5409E+01
  -7.780  0.1527E+01  0.5425E+01
  -7.770  0.1531E+01  0.5440E+01
  -7.760  0.1536E+01  0.5455E+01
  -7.750  0.1545E+01  0.5471E+01
  -7.740  0.1557E+01  0.5486E+01
  -7.730  0.1564E+01  0.5502E+01
  -7.720  0.1572E+01  0.5517E+01
  -7.710  0.1580E+01  0.5533E+01
  -7.700  0.1587E+01  0.5549E+01
  -7.690  0.1599E+01  0.5565E+01
  -7.680  0.1613E+01  0.5581E+01
  -7.670  0.1627E+01  0.5597E+01
  -7.660  0.1634E+01  0.5613E+01
  -7.650  0.1641E+01  0.5630E+01
  -7.640  0.1649E+01  0.5646E+01
  -7.630  0.1660E+01  0.5663E+01
  -7.620  0.1676E+01  0.5680E+01
  -7.610  0.1688E+01  0.5696E+01
  -7.600  0.1700E+01  0.5713E+01
  -7.590  0.1711E+01  0.5730E+01
  -7.580  0.1722E+01  0.5748E+01
  -7.570  0.1736E+01  0.5765E+01
  -7.560  0.1757E+01  0.5782E+01
  -7.550  0.1769E+01  0.5800E+01
  -7.540  0.1781E+01  0.5818E+01
  -7.530  0.1793E+01  0.5836E+01
  -7.520  0.1805E+01  0.5853E+01
  -7.510  0.1824E+01  0.5872E+01
  -7.500  0.1846E+01  0.5890E+01
  -7.490  0.1863E+01  0.5909E+01
  -7.480  0.1879E+01  0.5927E+01
  -7.470  0.1895E+01  0.5946E+01
  -7.460  0.1914E+01  0.5965E+01
  -7.450  0.1938E+01  0.5984E+01
  -7.440  0.1960E+01  0.6004E+01
  -7.430  0.1978E+01  0.6024E+01
  -7.420  0.1997E+01  0.6043E+01
  -7.410  0.2026E+01  0.6064E+01
  -7.400  0.2052E+01  0.6084E+01
  -7.390  0.2078E+01  0.6105E+01
  -7.380  0.2106E+01  0.6126E+01
  -7.370  0.2130E+01  0.6147E+01
  -7.360  0.2169E+01  0.6168E+01
  -7.350  0.2200E+01  0.6190E+01
  -7.340  0.2229E+01  0.6212E+01
  -7.330  0.2256E+01  0.6235E+01
  -7.320  0.2309E+01  0.6257E+01
  -7.310  0.2358E+01  0.6281E+01
  -7.300  0.2400E+01  0.6305E+01
  -7.290  0.2441E+01  0.6329E+01
  -7.280  0.2510E+01  0.6354E+01
  -7.270  0.2565E+01  0.6379E+01
  -7.260  0.2623E+01  0.6405E+01
  -7.250  0.2711E+01  0.6431E+01
  -7.240  0.2789E+01  0.6459E+01
  -7.230  0.2879E+01  0.6487E+01
  -7.220  0.3043E+01  0.6517E+01
  -7.210  0.3186E+01  0.6548E+01
  -7.200  0.3472E+01  0.6581E+01
  -7.190  0.3986E+01  0.6618E+01
  -7.180  0.4055E+01  0.6663E+01
  -7.170  0.3511E+01  0.6701E+01
  -7.160  0.3281E+01  0.6735E+01
  -7.150  0.3232E+01  0.6768E+01
  -7.140  0.3112E+01  0.6800E+01
  -7.130  0.2950E+01  0.6830E+01
  -7.120  0.2896E+01  0.6860E+01
  -7.110  0.2891E+01  0.6888E+01
  -7.100  0.2806E+01  0.6917E+01
  -7.090  0.2790E+01  0.6945E+01
  -7.080  0.2824E+01  0.6973E+01
  -7.070  0.2772E+01  0.7001E+01
  -7.060  0.2733E+01  0.7028E+01
  -7.050  0.2752E+01  0.7056E+01
  -7.040  0.2694E+01  0.7083E+01
  -7.030  0.2683E+01  0.7110E+01
  -7.020  0.2752E+01  0.7137E+01
  -7.010  0.2746E+01  0.7165E+01
  -7.000  0.2749E+01  0.7192E+01
  -6.990  0.2750E+01  0.7220E+01
  -6.980  0.2768E+01  0.7247E+01
  -6.970  0.2793E+01  0.7275E+01
  -6.960  0.2876E+01  0.7304E+01
  -6.950  0.2845E+01  0.7333E+01
  -6.940  0.3012E+01  0.7362E+01
  -6.930  0.3050E+01  0.7391E+01
  -6.920  0.3122E+01  0.7423E+01
  -6.910  0.3259E+01  0.7455E+01
  -6.900  0.3688E+01  0.7490E+01
  -6.890  0.4010E+01  0.7527E+01
  -6.880  0.2829E+01  0.7568E+01
  -6.870  0.2314E+01  0.7593E+01
  -6.860  0.2059E+01  0.7616E+01
  -6.850  0.2141E+01  0.7637E+01
  -6.840  0.1941E+01  0.7657E+01
  -6.830  0.1890E+01  0.7676E+01
  -6.820  0.1692E+01  0.7694E+01
  -6.810  0.1729E+01  0.7711E+01
  -6.800  0.1605E+01  0.7727E+01
  -6.790  0.1557E+01  0.7743E+01
  -6.780  0.1584E+01  0.7759E+01
  -6.770  0.1487E+01  0.7774E+01
  -6.760  0.1457E+01  0.7789E+01
  -6.750  0.1382E+01  0.7803E+01
  -6.740  0.1361E+01  0.7817E+01
  -6.730  0.1314E+01  0.7831E+01
  -6.720  0.1348E+01  0.7844E+01
  -6.710  0.1284E+01  0.7857E+01
  -6.700  0.1288E+01  0.7870E+01
  -6.690  0.1195E+01  0.7883E+01
  -6.680  0.1198E+01  0.7895E+01
  -6.670  0.1254E+01  0.7907E+01
  -6.660  0.1192E+01  0.7919E+01
  -6.650  0.1093E+01  0.7930E+01
  -6.640  0.1148E+01  0.7942E+01
  -6.630  0.1192E+01  0.7953E+01
  -6.620  0.1182E+01  0.7964E+01
  -6.610  0.9703E+00  0.7975E+01
  -6.600  0.1081E+01  0.7986E+01
  -6.590  0.3980E+02  0.7997E+01
  -6.580  0.0000E+00  0.8000E+01
  -6.570  0.0000E+00  0.8000E+01
  -6.560  0.0000E+00  0.8000E+01
  -6.550  0.0000E+00  0.8000E+01
  -6.540  0.0000E+00  0.8000E+01
  -6.530  0.0000E+00  0.8000E+01
  -6.520  0.0000E+00  0.8000E+01
  -6.510  0.0000E+00  0.8000E+01
  -6.500  0.0000E+00  0.8000E+01
  -6.490  0.0000E+00  0.8000E+01
  -6.480  0.0000E+00  0.8000E+01
  -6.470  0.0000E+00  0.8000E+01
  -6.460  0.0000E+00  0.8000E+01
  -6.450  0.0000E+00  0.8000E+01
  -6.440  0.0000E+00  0.8000E+01
  -6.430  0.0000E+00  0.8000E+01
  -6.420  0.0000E+00  0.8000E+01
  -6.410  0.0000E+00  0.8000E+01
  -6.400  0.0000E+00  0.8000E+01
  -6.390  0.0000E+00  0.8000E+01
  -6.380  0.0000E+00  0.8000E+01
  -6.370  0.0000E+00  0.8000E+01
  -6.360  0.0000E+00  0.8000E+01
  -6.350  0.0000E+00  0.8000E+01
  -6.340  0.0000E+00  0.8000E+01
  -6.330  0.0000E+00  0.8000E+01
  -6.320  0.0000E+00  0.8000E+01
  -6.310  0.0000E+00  0.8000E+01
  -6.300  0.0000E+00  0.8000E+01
  -6.290  0.0000E+00  0.8000E+01
  -6.280  0.0000E+00  0.8000E+01
  -6.270  0.0000E+00  0.8000E+01
  -6.260  0.0000E+00  0.8000E+01
  -6.250  0.0000E+00  0.8000E+01
  -6.240  0.0000E+00  0.8000E+01
  -6.230  0.0000E+00  0.8000E+01
  -6.220  0.0000E+00  0.8000E+01
  -6.210  0.0000E+00  0.8000E+01
  -6.200  0.0000E+00  0.8000E+01
  -6.190  0.0000E+00  0.8000E+01
  -6.180  0.0000E+00  0.8000E+01
  -6.170  0.0000E+00  0.8000E+01
  -6.160  0.0000E+00  0.8000E+01
  -6.150  0.0000E+00  0.8000E+01
  -6.140  0.0000E+00  0.8000E+01
  -6.130  0.0000E+00  0.8000E+01
  -6.120  0.0000E+00  0.8000E+01
  -6.110  0.0000E+00  0.8000E+01
  -6.100  0.0000E+00  0.8000E+01
  -6.090  0.0000E+00  0.8000E+01
  -6.080  0.0000E+00  0.8000E+01
  -6.070  0.0000E+00  0.8000E+01
  -6.060  0.0000E+00  0.8000E+01
  -6.050  0.0000E+00  0.8000E+01
  -6.040  0.0000E+00  0.8000E+01
  -6.030  0.0000E+00  0.8000E+01
  -6.020  0.0000E+00  0.8000E+01
  -6.010  0.0000E+00  0.8000E+01
  -6.000  0.0000E+00  0.8000E+01
  -5.990  0.0000E+00  0.8000E+01
  -5.980  0.0000E+00  0.8000E+01
  -5.970  0.0000E+00  0.8000E+01
  -5.960  0.0000E+00  0.8000E+01
  -5.950  0.0000E+00  0.8000E+01
  -5.940  0.0000E+00  0.8000E+01
  -5.930  0.0000E+00  0.8000E+01
  -5.920  0.0000E+00  0.8000E+01
  -5.910  0.0000E+00  0.8000E+01
  -5.900  0.0000E+00  0.8000E+01
  -5.890  0.0000E+00  0.8000E+01
  -5.880  0.0000E+00  0.8000E+01
  -5.870  0.0000E+00  0.8000E+01
  -5.860  0.0000E+00  0.8000E+01
  -5.850  0.0000E+00  0.8000E+01
  -5.840  0.0000E+00  0.8000E+01
  -5.830  0.0000E+00  0.8000E+01
  -5.820  0.0000E+00  0.8000E+01
  -5.810  0.0000E+00  0.8000E+01
  -5.800  0.0000E+00  0.8000E+01
  -5.790  0.0000E+00  0.8000E+01
  -5.780  0.0000E+00  0.8000E+01
  -5.770  0.0000E+00  0.8000E+01
  -5.760  0.0000E+00  0.8000E+01
  -5.750  0.0000E+00  0.8000E+01
  -5.740  0.0000E+00  0.8000E+01
  -5.730  0.0000E+00  0.8000E+01
  -5.720  0.0000E+00  0.8000E+01
  -5.710  0.0000E+00  0.8000E+01
  -5.700  0.0000E+00  0.8000E+01
  -5.690  0.0000E+00  0.8000E+01
  -5.680  0.0000E+00  0.8000E+01
  -5.670  0.0000E+00  0.8000E+01
  -5.660  0.0000E+00  0.8000E+01
  -5.650  0.0000E+00  0.8000E+01
  -5.640  0.0000E+00  0.8000E+01
  -5.630  0.0000E+00  0.8000E+01
  -5.620  0.0000E+00  0.8000E+01
  -5.610  0.0000E+00  0.8000E+01
  -5.600  0.0000E+00  0.8000E+01
  -5.590  0.0000E+00  0.8000E+01
  -5.580  0.0000E+00  0.8000E+01
  -5.570  0.0000E+00  0.8000E+01
  -5.560  0.0000E+00  0.8000E+01
  -5.550  0.0000E+00  0.8000E+01
  -5.540  0.0000E+00  0.8000E+01
  -5.530  0.0000E+00  0.8000E+01
  -5.520  0.0000E+00  0.8000E+01
  -5.510  0.0000E+00  0.8000E+01
  -5.500  0.0000E+00  0.8000E+01
  -5.490  0.0000E+00  0.8000E+01
  -5.480  0.0000E+00  0.8000E+01
  -5.470  0.0000E+00  0.8000E+01
  -5.460  0.0000E+00  0.8000E+01
  -5.450  0.0000E+00  0.8000E+01
  -5.440  0.0000E+00  0.8000E+01
  -5.430  0.0000E+00  0.8000E+01
  -5.420  0.0000E+00  0.8000E+01
  -5.410  0.0000E+00  0.8000E+01
  -5.400  0.0000E+00  0.8000E+01
  -5.390  0.0000E+00  0.8000E+01
  -5.380  0.0000E+00  0.8000E+01
  -5.370  0.0000E+00  0.8000E+01
  -5.360  0.0000E+00  0.8000E+01
  -5.350  0.0000E+00  0.8000E+01
  -5.340  0.0000E+00  0.8000E+01
  -5.330  0.0000E+00  0.8000E+01
  -5.320  0.0000E+00  0.8000E+01
  -5.310  0.0000E+00  0.8000E+01
  -5.300  0.0000E+00  0.8000E+01
  -5.290  0.0000E+00  0.8000E+01
  -5.280  0.0000E+00  0.8000E+01
  -5.270  0.0000E+00  0.8000E+01
  -5.260  0.0000E+00  0.8000E+01
  -5.250  0.0000E+00  0.8000E+01
  -5.240  0.0000E+00  0.8000E+01
  -5.230  0.0000E+00  0.8000E+01
  -5.220  0.0000E+00  0.8000E+01
  -5.210  0.0000E+00  0.8000E+01
  -5.200  0.0000E+00  0.8000E+01
  -5.190  0.0000E+00  0.8000E+01
  -5.180  0.0000E+00  0.8000E+01
  -5.170  0.0000E+00  0.8000E+01
  -5.160  0.0000E+00  0.8000E+01
  -5.150  0.0000E+00  0.8000E+01
  -5.140  0.0000E+00  0.8000E+01
  -5.130  0.0000E+00  0.8000E+01
  -5.120  0.0000E+00  0.8000E+01
  -5.110  0.0000E+00  0.8000E+01
  -5.100  0.0000E+00  0.8000E+01
  -5.090  0.0000E+00  0.8000E+01
  -5.080  0.0000E+00  0.8000E+01
  -5.070  0.0000E+00  0.8000E+01
  -5.060  0.0000E+00  0.8000E+01
  -5.050  0.0000E+00  0.8000E+01
  -5.040  0.0000E+00  0.8000E+01
  -5.030  0.0000E+00  0.8000E+01
  -5.020  0.0000E+00  0.8000E+01
  -5.010  0.0000E+00  0.8000E+01
  -5.000  0.0000E+00  0.8000E+01
  -4.990  0.0000E+00  0.8000E+01
  -4.980  0.0000E+00  0.8000E+01
  -4.970  0.0000E+00  0.8000E+01
  -4.960  0.0000E+00  0.8000E+01
  -4.950  0.0000E+00  0.8000E+01
  -4.940  0.0000E+00  0.8000E+01
  -4.930  0.0000E+00  0.8000E+01
  -4.920  0.0000E+00  0.8000E+01
  -4.910  0.0000E+00  0.8000E+01
  -4.900  0.0000E+00  0.8000E+01
  -4.890  0.0000E+00  0.8000E+01
  -4.880  0.0000E+00  0.8000E+01
  -4.870  0.0000E+00  0.8000E+01
  -4.860  0.0000E+00  0.8000E+01
  -4.850  0.0000E+00  0.8000E+01
  -4.840  0.0000E+00  0.8000E+01
  -4.830  0.0000E+00  0.8000E+01
  -4.820  0.0000E+00  0.8000E+01
  -4.810  0.0000E+00  0.8000E+01
  -4.800  0.0000E+00  0.8000E+01
  -4.790  0.0000E+00  0.8000E+01
  -4.780  0.0000E+00  0.8000E+01
  -4.770  0.0000E+00  0.8000E+01
  -4.760  0.0000E+00  0.8000E+01
  -4.750  0.0000E+00  0.8000E+01
  -4.740  0.0000E+00  0.8000E+01
  -4.730  0.0000E+00  0.8000E+01
  -4.720  0.0000E+00  0.8000E+01
  -4.710  0.0000E+00  0.8000E+01
  -4.700  0.0000E+00  0.8000E+01
  -4.690  0.0000E+00  0.8000E+01
  -4.680  0.0000E+00  0.8000E+01
  -4.670  0.0000E+00  0.8000E+01
  -4.660  0.0000E+00  0.8000E+01
  -4.650  0.0000E+00  0.8000E+01
  -4.640  0.0000E+00  0.8000E+01
  -4.630  0.0000E+00  0.8000E+01
  -4.620  0.0000E+00  0.8000E+01
  -4.610  0.0000E+00  0.8000E+01
  -4.600  0.0000E+00  0.8000E+01
  -4.590  0.0000E+00  0.8000E+01
  -4.580  0.0000E+00  0.8000E+01
  -4.570  0.0000E+00  0.8000E+01
  -4.560  0.0000E+00  0.8000E+01
  -4.550  0.0000E+00  0.8000E+01
  -4.540  0.0000E+00  0.8000E+01
  -4.530  0.0000E+00  0.8000E+01
  -4.520  0.0000E+00  0.8000E+01
  -4.510  0.0000E+00  0.8000E+01
  -4.500  0.0000E+00  0.8000E+01
  -4.490  0.0000E+00  0.8000E+01
  -4.480  0.0000E+00  0.8000E+01
  -4.470  0.0000E+00  0.8000E+01
  -4.460  0.0000E+00  0.8000E+01
  -4.450  0.0000E+00  0.8000E+01
  -4.440  0.0000E+00  0.8000E+01
  -4.430  0.0000E+00  0.8000E+01
  -4.420  0.0000E+00  0.8000E+01
  -4.410  0.0000E+00  0.8000E+01
  -4.400  0.0000E+00  0.8000E+01
  -4.390  0.0000E+00  0.8000E+01
  -4.380  0.0000E+00  0.8000E+01
  -4.370  0.0000E+00  0.8000E+01
  -4.360  0.0000E+00  0.8000E+01
  -4.350  0.0000E+00  0.8000E+01
  -4.340  0.0000E+00  0.8000E+01
  -4.330  0.0000E+00  0.8000E+01
  -4.320  0.0000E+00  0.8000E+01
  -4.310  0.0000E+00  0.8000E+01
  -4.300  0.0000E+00  0.8000E+01
  -4.290  0.0000E+00  0.8000E+01
  -4.280  0.0000E+00  0.8000E+01
  -4.270  0.0000E+00  0.8000E+01
  -4.260  0.0000E+00  0.8000E+01
  -4.250  0.0000E+00  0.8000E+01
  -4.240  0.0000E+00  0.8000E+01
  -4.230  0.0000E+00  0.8000E+01
  -4.220  0.0000E+00  0.8000E+01
  -4.210  0.0000E+00  0.8000E+01
  -4.200  0.0000E+00  0.8000E+01
  -4.190  0.0000E+00  0.8000E+01
  -4.180  0.0000E+00  0.8000E+01
  -4.170  0.0000E+00  0.8000E+01
  -4.160  0.0000E+00  0.8000E+01
  -4.150  0.0000E+00  0.8000E+01
  -4.140  0.0000E+00  0.8000E+01
  -4.130  0.0000E+00  0.8000E+01
  -4.120  0.0000E+00  0.8000E+01
  -4.110  0.0000E+00  0.8000E+01
  -4.100  0.0000E+00  0.8000E+01
  -4.090  0.0000E+00  0.8000E+01
  -4.080  0.0000E+00  0.8000E+01
  -4.070  0.0000E+00  0.8000E+01
  -4.060  0.0000E+00  0.8000E+01
  -4.050  0.0000E+00  0.8000E+01
  -4.040  0.0000E+00  0.8000E+01
  -4.030  0.0000E+00  0.8000E+01
  -4.020  0.0000E+00  0.8000E+01
  -4.010  0.0000E+00  0.8000E+01
  -4.000  0.0000E+00  0.8000E+01
  -3.990  0.0000E+00  0.8000E+01
  -3.980  0.0000E+00  0.8000E+01
  -3.970  0.0000E+00  0.8000E+01
  -3.960  0.0000E+00  0.8000E+01
  -3.950  0.0000E+00  0.8000E+01
  -3.940  0.0000E+00  0.8000E+01
  -3.930  0.0000E+00  0.8000E+01
  -3.920  0.0000E+00  0.8000E+01
  -3.910  0.0000E+00  0.8000E+01
  -3.900  0.0000E+00  0.8000E+01
  -3.890  0.0000E+00  0.8000E+01
  -3.880  0.0000E+00  0.8000E+01
  -3.870  0.0000E+00  0.8000E+01
  -3.860  0.0000E+00  0.8000E+01
  -3.850  0.0000E+00  0.8000E+01
  -3.840  0.0000E+00  0.8000E+01
  -3.830  0.0000E+00  0.8000E+01
  -3.820  0.0000E+00  0.8000E+01
  -3.810  0.0000E+00  0.8000E+01
  -3.800  0.0000E+00  0.8000E+01
  -3.790  0.0000E+00  0.8000E+01
  -3.780  0.0000E+00  0.8000E+01
  -3.770  0.0000E+00  0.8000E+01
  -3.760  0.0000E+00  0.8000E+01
  -3.750  0.0000E+00  0.8000E+01
  -3.740  0.0000E+00  0.8000E+01
  -3.730  0.0000E+00  0.8000E+01
  -3.720  0.0000E+00  0.8000E+01
  -3.710  0.0000E+00  0.8000E+01
  -3.700  0.0000E+00  0.8000E+01
  -3.690  0.0000E+00  0.8000E+01
  -3.680  0.0000E+00  0.8000E+01
  -3.670  0.0000E+00  0.8000E+01
  -3.660  0.0000E+00  0.8000E+01
  -3.650  0.0000E+00  0.8000E+01
  -3.640  0.0000E+00  0.8000E+01
  -3.630  0.0000E+00  0.8000E+01
  -3.620  0.0000E+00  0.8000E+01
  -3.610  0.0000E+00  0.8000E+01
  -3.600  0.0000E+00  0.8000E+01
  -3.590  0.0000E+00  0.8000E+01
  -3.580  0.0000E+00  0.8000E+01
  -3.570  0.0000E+00  0.8000E+01
  -3.560  0.0000E+00  0.8000E+01
  -3.550  0.0000E+00  0.8000E+01
  -3.540  0.0000E+00  0.8000E+01
  -3.530  0.0000E+00  0.8000E+01
  -3.520  0.0000E+00  0.8000E+01
  -3.510  0.0000E+00  0.8000E+01
  -3.500  0.0000E+00  0.8000E+01
  -3.490  0.0000E+00  0.8000E+01
  -3.480  0.0000E+00  0.8000E+01
  -3.470  0.0000E+00  0.8000E+01
  -3.460  0.0000E+00  0.8000E+01
  -3.450  0.0000E+00  0.8000E+01
  -3.440  0.0000E+00  0.8000E+01
  -3.430  0.0000E+00  0.8000E+01
  -3.420  0.0000E+00  0.8000E+01
  -3.410  0.0000E+00  0.8000E+01
  -3.400  0.0000E+00  0.8000E+01
  -3.390  0.0000E+00  0.8000E+01
  -3.380  0.0000E+00  0.8000E+01
  -3.370  0.0000E+00  0.8000E+01
  -3.360  0.0000E+00  0.8000E+01
  -3.350  0.0000E+00  0.8000E+01
  -3.340  0.0000E+00  0.8000E+01
  -3.330  0.0000E+00  0.8000E+01
  -3.320  0.0000E+00  0.8000E+01
  -3.310  0.0000E+00  0.8000E+01
  -3.300  0.0000E+00  0.8000E+01
  -3.290  0.0000E+00  0.8000E+01
  -3.280  0.0000E+00  0.8000E+01
  -3.270  0.0000E+00  0.8000E+01
  -3.260  0.0000E+00  0.8000E+01
  -3.250  0.0000E+00  0.8000E+01
  -3.240  0.0000E+00  0.8000E+01
  -3.230  0.0000E+00  0.8000E+01
  -3.220  0.0000E+00  0.8000E+01
  -3.210  0.0000E+00  0.8000E+01
  -3.200  0.0000E+00  0.8000E+01
  -3.190  0.0000E+00  0.8000E+01
  -3.180  0.0000E+00  0.8000E+01
  -3.170  0.0000E+00  0.8000E+01
  -3.160  0.0000E+00  0.8000E+01
  -3.150  0.0000E+00  0.8000E+01
  -3.140  0.0000E+00  0.8000E+01
  -3.130  0.0000E+00  0.8000E+01
  -3.120  0.0000E+00  0.8000E+01
  -3.110  0.0000E+00  0.8000E+01
  -3.100  0.0000E+00  0.8000E+01
  -3.090  0.0000E+00  0.8000E+01
  -3.080  0.0000E+00  0.8000E+01
  -3.070  0.0000E+00  0.8000E+01
  -3.060  0.0000E+00  0.8000E+01
  -3.050  0.0000E+00  0.8000E+01
  -3.040  0.0000E+00  0.8000E+01
  -3.030  0.0000E+00  0.8000E+01
  -3.020  0.0000E+00  0.8000E+01
  -3.010  0.0000E+00  0.8000E+01
  -3.000  0.0000E+00  0.8000E+01
  -2.990  0.0000E+00  0.8000E+01
  -2.980  0.0000E+00  0.8000E+01
  -2.970  0.0000E+00  0.8000E+01
  -2.960  0.0000E+00  0.8000E+01
  -2.950  0.0000E+00  0.8000E+01
  -2.940  0.0000E+00  0.8000E+01
  -2.930  0.0000E+00  0.8000E+01
  -2.920  0.0000E+00  0.8000E+01
  -2.910  0.0000E+00  0.8000E+01
  -2.900  0.0000E+00  0.8000E+01
  -2.890  0.0000E+00  0.8000E+01
  -2.880  0.0000E+00  0.8000E+01
  -2.870  0.0000E+00  0.8000E+01
  -2.860  0.0000E+00  0.8000E+01
  -2.850  0.0000E+00  0.8000E+01
  -2.840  0.0000E+00  0.8000E+01
  -2.830  0.0000E+00  0.8000E+01
  -2.820  0.0000E+00  0.8000E+01
  -2.810  0.0000E+00  0.8000E+01
  -2.800  0.0000E+00  0.8000E+01
  -2.790  0.0000E+00  0.8000E+01
  -2.780  0.0000E+00  0.8000E+01
  -2.770  0.0000E+00  0.8000E+01
  -2.760  0.0000E+00  0.8000E+01
  -2.750  0.0000E+00  0.8000E+01
  -2.740  0.0000E+00  0.8000E+01
  -2.730  0.0000E+00  0.8000E+01
  -2.720  0.0000E+00  0.8000E+01
  -2.710  0.0000E+00  0.8000E+01
  -2.700  0.0000E+00  0.8000E+01
  -2.690  0.0000E+00  0.8000E+01
  -2.680  0.0000E+00  0.8000E+01
  -2.670  0.0000E+00  0.8000E+01
  -2.660  0.0000E+00  0.8000E+01
  -2.650  0.0000E+00  0.8000E+01
  -2.640  0.0000E+00  0.8000E+01
  -2.630  0.0000E+00  0.8000E+01
  -2.620  0.0000E+00  0.8000E+01
  -2.610  0.0000E+00  0.8000E+01
  -2.600  0.0000E+00  0.8000E+01
  -2.590  0.0000E+00  0.8000E+01
  -2.580  0.0000E+00  0.8000E+01
  -2.570  0.0000E+00  0.8000E+01
  -2.560  0.0000E+00  0.8000E+01
  -2.550  0.0000E+00  0.8000E+01
  -2.540  0.0000E+00  0.8000E+01
  -2.530  0.0000E+00  0.8000E+01
  -2.520  0.0000E+00  0.8000E+01
  -2.510  0.0000E+00  0.8000E+01
  -2.500  0.0000E+00  0.8000E+01
  -2.490  0.0000E+00  0.8000E+01
  -2.480  0.0000E+00  0.8000E+01
  -2.470  0.0000E+00  0.8000E+01
  -2.460  0.0000E+00  0.8000E+01
  -2.450  0.0000E+00  0.8000E+01
  -2.440  0.0000E+00  0.8000E+01
  -2.430  0.0000E+00  0.8000E+01
  -2.420  0.0000E+00  0.8000E+01
  -2.410  0.1209E+01  0.8010E+01
  -2.400  0.1625E+01  0.8024E+01
  -2.390  0.1487E+01  0.8039E+01
  -2.380  0.1480E+01  0.8054E+01
  -2.370  0.1562E+01  0.8070E+01
  -2.360  0.1537E+01  0.8085E+01
  -2.350  0.1500E+01  0.8100E+01
  -2.340  0.1611E+01  0.8116E+01
  -2.330  0.1602E+01  0.8132E+01
  -2.320  0.1537E+01  0.8147E+01
  -2.310  0.1555E+01  0.8163E+01
  -2.300  0.1642E+01  0.8179E+01
  -2.290  0.1640E+01  0.8195E+01
  -2.280  0.1604E+01  0.8211E+01
  -2.270  0.1603E+01  0.8227E+01
  -2.260  0.1644E+01  0.8244E+01
  -2.250  0.1714E+01  0.8260E+01
  -2.240  0.1702E+01  0.8278E+01
  -2.230  0.1683E+01  0.8294E+01
  -2.220  0.1691E+01  0.8311E+01
  -2.210  0.1705E+01  0.8328E+01
  -2.200  0.1773E+01  0.8345E+01
  -2.190  0.1790E+01  0.8363E+01
  -2.180  0.1764E+01  0.8381E+01
  -2.170  0.2798E+01  0.8401E+01
  -2.160  0.3252E+01  0.8434E+01
  -2.150  0.3250E+01  0.8468E+01
  -2.140  0.3280E+01  0.8502E+01
  -2.130  0.3515E+01  0.8536E+01
  -2.120  0.3455E+01  0.8571E+01
  -2.110  0.3413E+01  0.8605E+01
  -2.100  0.3544E+01  0.8640E+01
  -2.090  0.3646E+01  0.8676E+01
  -2.080  0.3642E+01  0.8712E+01
  -2.070  0.3660E+01  0.8749E+01
  -2.060  0.3740E+01  0.8786E+01
  -2.050  0.3924E+01  0.8824E+01
  -2.040  0.3880E+01  0.8863E+01
  -2.030  0.3979E+01  0.8902E+01
  -2.020  0.4115E+01  0.8943E+01
  -2.010  0.4277E+01  0.8985E+01
  -2.000  0.4488E+01  0.9029E+01
  -1.990  0.4640E+01  0.9074E+01
  -1.980  0.4985E+01  0.9123E+01
  -1.970  0.5647E+01  0.9181E+01
  -1.960  0.5034E+01  0.9236E+01
  -1.950  0.4636E+01  0.9284E+01
  -1.940  0.4319E+01  0.9328E+01
  -1.930  0.4178E+01  0.9371E+01
  -1.920  0.4006E+01  0.9412E+01
  -1.910  0.3925E+01  0.9451E+01
  -1.900  0.3901E+01  0.9490E+01
  -1.890  0.3821E+01  0.9529E+01
  -1.880  0.3741E+01  0.9567E+01
  -1.870  0.3676E+01  0.9604E+01
  -1.860  0.3676E+01  0.9640E+01
  -1.850  0.3620E+01  0.9677E+01
  -1.840  0.3597E+01  0.9713E+01
  -1.830  0.3648E+01  0.9749E+01
  -1.820  0.3649E+01  0.9786E+01
  -1.810  0.3621E+01  0.9822E+01
  -1.800  0.3601E+01  0.9858E+01
  -1.790  0.3602E+01  0.9894E+01
  -1.780  0.3683E+01  0.9932E+01
  -1.770  0.3651E+01  0.9969E+01
  -1.760  0.3707E+01  0.1001E+02
  -1.750  0.3776E+01  0.1004E+02
  -1.740  0.4070E+01  0.1008E+02
  -1.730  0.5104E+01  0.1013E+02
  -1.720  0.4673E+01  0.1018E+02
  -1.710  0.3895E+01  0.1022E+02
  -1.700  0.3561E+01  0.1026E+02
  -1.690  0.3340E+01  0.1029E+02
  -1.680  0.3151E+01  0.1032E+02
  -1.670  0.2975E+01  0.1035E+02
  -1.660  0.2925E+01  0.1038E+02
  -1.650  0.2770E+01  0.1041E+02
  -1.640  0.2712E+01  0.1044E+02
  -1.630  0.2589E+01  0.1047E+02
  -1.620  0.2545E+01  0.1049E+02
  -1.610  0.2453E+01  0.1052E+02
  -1.600  0.2363E+01  0.1054E+02
  -1.590  0.2303E+01  0.1056E+02
  -1.580  0.2337E+01  0.1059E+02
  -1.570  0.2205E+01  0.1061E+02
  -1.560  0.2144E+01  0.1063E+02
  -1.550  0.2081E+01  0.1065E+02
  -1.540  0.2011E+01  0.1067E+02
  -1.530  0.1898E+01  0.1069E+02
  -1.520  0.1756E+01  0.1071E+02
  -1.510  0.1701E+01  0.1073E+02
  -1.500  0.1681E+01  0.1075E+02
  -1.490  0.1664E+01  0.1076E+02
  -1.480  0.1682E+01  0.1078E+02
  -1.470  0.1813E+01  0.1080E+02
  -1.460  0.1931E+01  0.1082E+02
  -1.450  0.2152E+01  0.1084E+02
  -1.440  0.2252E+01  0.1086E+02
  -1.430  0.2224E+01  0.1088E+02
  -1.420  0.2264E+01  0.1090E+02
  -1.410  0.2234E+01  0.1093E+02
  -1.400  0.2263E+01  0.1095E+02
  -1.390  0.2284E+01  0.1097E+02
  -1.380  0.2293E+01  0.1099E+02
  -1.370  0.2311E+01  0.1102E+02
  -1.360  0.2304E+01  0.1104E+02
  -1.350  0.2336E+01  0.1106E+02
  -1.340  0.2399E+01  0.1109E+02
  -1.330  0.2506E+01  0.1111E+02
  -1.320  0.2617E+01  0.1114E+02
  -1.310  0.2716E+01  0.1117E+02
  -1.300  0.2792E+01  0.1119E+02
  -1.290  0.3082E+01  0.1122E+02
  -1.280  0.3939E+01  0.1126E+02
  -1.270  0.3929E+01  0.1130E+02
  -1.260  0.4378E+01  0.1134E+02
  -1.250  0.4991E+01  0.1138E+02
  -1.240  0.5396E+01  0.1144E+02
  -1.230  0.8271E+01  0.1150E+02
  -1.220  0.3272E+01  0.1157E+02
  -1.210  0.1881E+01  0.1159E+02
  -1.200  0.1864E+01  0.1161E+02
  -1.190  0.1823E+01  0.1163E+02
  -1.180  0.1874E+01  0.1165E+02
  -1.170  0.1828E+01  0.1167E+02
  -1.160  0.1860E+01  0.1169E+02
  -1.150  0.1887E+01  0.1170E+02
  -1.140  0.1919E+01  0.1172E+02
  -1.130  0.1911E+01  0.1174E+02
  -1.120  0.2194E+01  0.1176E+02
  -1.110  0.2252E+01  0.1179E+02
  -1.100  0.2410E+01  0.1181E+02
  -1.090  0.2564E+01  0.1183E+02
  -1.080  0.2766E+01  0.1186E+02
  -1.070  0.3751E+01  0.1189E+02
  -1.060  0.3061E+01  0.1192E+02
  -1.050  0.3208E+01  0.1195E+02
  -1.040  0.3214E+01  0.1199E+02
  -1.030  0.3268E+01  0.1202E+02
  -1.020  0.3389E+01  0.1205E+02
  -1.010  0.3549E+01  0.1209E+02
  -1.000  0.4089E+01  0.1212E+02
  -0.990  0.4634E+01  0.1217E+02
  -0.980  0.4817E+01  0.1222E+02
  -0.970  0.5165E+01  0.1227E+02
  -0.960  0.5817E+01  0.1232E+02
  -0.950  0.6790E+01  0.1238E+02
  -0.940  0.9376E+01  0.1247E+02
  -0.930  0.3213E+01  0.1254E+02
  -0.920  0.2801E+01  0.1257E+02
  -0.910  0.2701E+01  0.1260E+02
  -0.900  0.2728E+01  0.1263E+02
  -0.890  0.2775E+01  0.1265E+02
  -0.880  0.2763E+01  0.1268E+02
  -0.870  0.2812E+01  0.1271E+02
  -0.860  0.2865E+01  0.1274E+02
  -0.850  0.2742E+01  0.1277E+02
  -0.840  0.2687E+01  0.1279E+02
  -0.830  0.2644E+01  0.1282E+02
  -0.820  0.2569E+01  0.1285E+02
  -0.810  0.2666E+01  0.1287E+02
  -0.800  0.3034E+01  0.1290E+02
  -0.790  0.3148E+01  0.1293E+02
  -0.780  0.3344E+01  0.1296E+02
  -0.770  0.3253E+01  0.1300E+02
  -0.760  0.2990E+01  0.1303E+02
  -0.750  0.2851E+01  0.1306E+02
  -0.740  0.2837E+01  0.1309E+02
  -0.730  0.2947E+01  0.1311E+02
  -0.720  0.3006E+01  0.1314E+02
  -0.710  0.2924E+01  0.1317E+02
  -0.700  0.3055E+01  0.1320E+02
  -0.690  0.2750E+01  0.1323E+02
  -0.680  0.2592E+01  0.1326E+02
  -0.670  0.2483E+01  0.1329E+02
  -0.660  0.2886E+01  0.1331E+02
  -0.650  0.2996E+01  0.1334E+02
  -0.640  0.3207E+01  0.1337E+02
  -0.630  0.3182E+01  0.1340E+02
  -0.620  0.3269E+01  0.1344E+02
  -0.610  0.3421E+01  0.1347E+02
  -0.600  0.3577E+01  0.1350E+02
  -0.590  0.3809E+01  0.1354E+02
  -0.580  0.4023E+01  0.1358E+02
  -0.570  0.3897E+01  0.1362E+02
  -0.560  0.3785E+01  0.1366E+02
  -0.550  0.3923E+01  0.1370E+02
  -0.540  0.4377E+01  0.1374E+02
  -0.530  0.4317E+01  0.1378E+02
  -0.520  0.4059E+01  0.1382E+02
  -0.510  0.3858E+01  0.1386E+02
  -0.500  0.3844E+01  0.1390E+02
  -0.490  0.3784E+01  0.1394E+02
  -0.480  0.3860E+01  0.1398E+02
  -0.470  0.3823E+01  0.1402E+02
  -0.460  0.3755E+01  0.1405E+02
  -0.450  0.3716E+01  0.1409E+02
  -0.440  0.3799E+01  0.1413E+02
  -0.430  0.3890E+01  0.1417E+02
  -0.420  0.4156E+01  0.1421E+02
  -0.410  0.4498E+01  0.1425E+02
  -0.400  0.4860E+01  0.1430E+02
  -0.390  0.5312E+01  0.1435E+02
  -0.380  0.6121E+01  0.1441E+02
  -0.370  0.6743E+01  0.1447E+02
  -0.360  0.6955E+01  0.1454E+02
  -0.350  0.6809E+01  0.1461E+02
  -0.340  0.6388E+01  0.1468E+02
  -0.330  0.6030E+01  0.1474E+02
  -0.320  0.5922E+01  0.1480E+02
  -0.310  0.5883E+01  0.1486E+02
  -0.300  0.5892E+01  0.1492E+02
  -0.290  0.5919E+01  0.1498E+02
  -0.280  0.6052E+01  0.1504E+02
  -0.270  0.6962E+01  0.1510E+02
  -0.260  0.6474E+01  0.1517E+02
  -0.250  0.6208E+01  0.1523E+02
  -0.240  0.6023E+01  0.1529E+02
  -0.230  0.6085E+01  0.1535E+02
  -0.220  0.6013E+01  0.1541E+02
  -0.210  0.6145E+01  0.1547E+02
  -0.200  0.6280E+01  0.1553E+02
  -0.190  0.6319E+01  0.1560E+02
  -0.180  0.6558E+01  0.1566E+02
  -0.170  0.6816E+01  0.1573E+02
  -0.160  0.6881E+01  0.1580E+02
  -0.150  0.6766E+01  0.1587E+02
  -0.140  0.6434E+01  0.1593E+02
  -0.130  0.6331E+01  0.1600E+02
  -0.120  0.5764E+01  0.1606E+02
  -0.110  0.4950E+01  0.1611E+02
  -0.100  0.4277E+01  0.1616E+02
  -0.090  0.3995E+01  0.1620E+02
  -0.080  0.4139E+01  0.1624E+02
  -0.070  0.4387E+01  0.1628E+02
  -0.060  0.6903E+01  0.1634E+02
  -0.050  0.7346E+01  0.1641E+02
  -0.040  0.6832E+01  0.1648E+02
  -0.030  0.6756E+01  0.1655E+02
  -0.020  0.6920E+01  0.1662E+02
  -0.010  0.7090E+01  0.1669E+02
   0.000  0.7382E+01  0.1676E+02
   0.010  0.8675E+01  0.1684E+02
   0.020  0.7776E+01  0.1693E+02
   0.030  0.7692E+01  0.1700E+02
   0.040  0.7697E+01  0.1708E+02
   0.050  0.7663E+01  0.1716E+02
   0.060  0.7519E+01  0.1723E+02
   0.070  0.7066E+01  0.1731E+02
   0.080  0.6799E+01  0.1738E+02
   0.090  0.6597E+01  0.1745E+02
   0.100  0.6428E+01  0.1751E+02
   0.110  0.6744E+01  0.1758E+02
   0.120  0.6722E+01  0.1764E+02
   0.130  0.6875E+01  0.1771E+02
   0.140  0.6810E+01  0.1778E+02
   0.150  0.6972E+01  0.1785E+02
   0.160  0.7608E+01  0.1792E+02
   0.170  0.8049E+01  0.1800E+02
   0.180  0.7056E+01  0.1807E+02
   0.190  0.6414E+01  0.1814E+02
   0.200  0.5762E+01  0.1820E+02
   0.210  0.4968E+01  0.1825E+02
   0.220  0.4716E+01  0.1830E+02
   0.230  0.5063E+01  0.1835E+02
   0.240  0.6085E+01  0.1841E+02
   0.250  0.6911E+01  0.1847E+02
   0.260  0.7297E+01  0.1854E+02
   0.270  0.6633E+01  0.1861E+02
   0.280  0.5868E+01  0.1867E+02
   0.290  0.4737E+01  0.1872E+02
   0.300  0.4544E+01  0.1877E+02
   0.310  0.4493E+01  0.1882E+02
   0.320  0.4294E+01  0.1886E+02
   0.330  0.4156E+01  0.1890E+02
   0.340  0.4114E+01  0.1895E+02
   0.350  0.4179E+01  0.1899E+02
   0.360  0.4105E+01  0.1903E+02
   0.370  0.4031E+01  0.1907E+02
   0.380  0.4037E+01  0.1911E+02
   0.390  0.4031E+01  0.1915E+02
   0.400  0.4035E+01  0.1919E+02
   0.410  0.4112E+01  0.1923E+02
   0.420  0.3910E+01  0.1927E+02
   0.430  0.3771E+01  0.1931E+02
   0.440  0.3771E+01  0.1935E+02
   0.450  0.3629E+01  0.1939E+02
   0.460  0.3608E+01  0.1942E+02
   0.470  0.3608E+01  0.1946E+02
   0.480  0.3656E+01  0.1949E+02
   0.490  0.4038E+01  0.1953E+02
   0.500  0.4104E+01  0.1957E+02
   0.510  0.4273E+01  0.1962E+02
   0.520  0.4890E+01  0.1966E+02
   0.530  0.5766E+01  0.1971E+02
   0.540  0.3353E+01  0.1975E+02
   0.550  0.3378E+01  0.1979E+02
   0.560  0.3566E+01  0.1982E+02
   0.570  0.3623E+01  0.1986E+02
   0.580  0.3728E+01  0.1989E+02
   0.590  0.4022E+01  0.1993E+02
   0.600  0.4244E+01  0.1997E+02
   0.610  0.4307E+01  0.2002E+02
   0.620  0.4287E+01  0.2006E+02
   0.630  0.3989E+01  0.2010E+02
   0.640  0.3745E+01  0.2014E+02
   0.650  0.3737E+01  0.2018E+02
   0.660  0.3769E+01  0.2021E+02
   0.670  0.4738E+01  0.2025E+02
   0.680  0.5090E+01  0.2031E+02
   0.690  0.5225E+01  0.2036E+02
   0.700  0.4405E+01  0.2041E+02
   0.710  0.4021E+01  0.2045E+02
   0.720  0.5530E+01  0.2050E+02
   0.730  0.5821E+01  0.2055E+02
   0.740  0.5104E+01  0.2061E+02
   0.750  0.4751E+01  0.2066E+02
   0.760  0.4726E+01  0.2070E+02
   0.770  0.4760E+01  0.2075E+02
   0.780  0.4518E+01  0.2080E+02
   0.790  0.3343E+01  0.2084E+02
   0.800  0.3633E+01  0.2087E+02
   0.810  0.3704E+01  0.2091E+02
   0.820  0.3829E+01  0.2095E+02
   0.830  0.4029E+01  0.2099E+02
   0.840  0.4148E+01  0.2103E+02
   0.850  0.4284E+01  0.2107E+02
   0.860  0.4470E+01  0.2111E+02
   0.870  0.4759E+01  0.2116E+02
   0.880  0.4926E+01  0.2121E+02
   0.890  0.5133E+01  0.2126E+02
   0.900  0.5296E+01  0.2131E+02
   0.910  0.5531E+01  0.2136E+02
   0.920  0.5713E+01  0.2142E+02
   0.930  0.5884E+01  0.2148E+02
   0.940  0.6228E+01  0.2154E+02
   0.950  0.6563E+01  0.2160E+02
   0.960  0.6721E+01  0.2167E+02
   0.970  0.6825E+01  0.2174E+02
   0.980  0.7031E+01  0.2181E+02
   0.990  0.7088E+01  0.2188E+02
   1.000  0.7212E+01  0.2195E+02
   1.010  0.7530E+01  0.2202E+02
   1.020  0.8284E+01  0.2210E+02
   1.030  0.7403E+01  0.2218E+02
   1.040  0.6956E+01  0.2225E+02
   1.050  0.6414E+01  0.2232E+02
   1.060  0.6231E+01  0.2238E+02
   1.070  0.5377E+01  0.2244E+02
   1.080  0.5134E+01  0.2250E+02
   1.090  0.5162E+01  0.2255E+02
   1.100  0.4954E+01  0.2260E+02
   1.110  0.4617E+01  0.2265E+02
   1.120  0.4625E+01  0.2269E+02
   1.130  0.4506E+01  0.2274E+02
   1.140  0.4767E+01  0.2278E+02
   1.150  0.4746E+01  0.2283E+02
   1.160  0.4525E+01  0.2288E+02
   1.170  0.3852E+01  0.2292E+02
   1.180  0.3974E+01  0.2296E+02
   1.190  0.4058E+01  0.2300E+02
   1.200  0.4167E+01  0.2304E+02
   1.210  0.4269E+01  0.2308E+02
   1.220  0.4772E+01  0.2313E+02
   1.230  0.5233E+01  0.2317E+02
   1.240  0.5647E+01  0.2323E+02
   1.250  0.5903E+01  0.2329E+02
   1.260  0.6470E+01  0.2335E+02
   1.270  0.7881E+01  0.2342E+02
   1.280  0.7324E+01  0.2349E+02
   1.290  0.6746E+01  0.2356E+02
   1.300  0.6060E+01  0.2363E+02
   1.310  0.4870E+01  0.2368E+02
   1.320  0.4588E+01  0.2373E+02
   1.330  0.4476E+01  0.2378E+02
   1.340  0.4429E+01  0.2382E+02
   1.350  0.4370E+01  0.2386E+02
   1.360  0.4541E+01  0.2391E+02
   1.370  0.4999E+01  0.2396E+02
   1.380  0.4869E+01  0.2400E+02
   1.390  0.3302E+01  0.2404E+02
   1.400  0.2600E+01  0.2407E+02
   1.410  0.2380E+01  0.2410E+02
   1.420  0.2322E+01  0.2412E+02
   1.430  0.2334E+01  0.2414E+02
   1.440  0.2374E+01  0.2417E+02
   1.450  0.2492E+01  0.2419E+02
   1.460  0.2613E+01  0.2422E+02
   1.470  0.2624E+01  0.2424E+02
   1.480  0.2625E+01  0.2427E+02
   1.490  0.2582E+01  0.2430E+02
   1.500  0.2748E+01  0.2432E+02
   1.510  0.2953E+01  0.2435E+02
   1.520  0.3612E+01  0.2438E+02
   1.530  0.4591E+01  0.2443E+02
   1.540  0.4215E+01  0.2447E+02
   1.550  0.4247E+01  0.2451E+02
   1.560  0.3931E+01  0.2455E+02
   1.570  0.2769E+01  0.2459E+02
   1.580  0.2759E+01  0.2461E+02
   1.590  0.2773E+01  0.2464E+02
   1.600  0.2906E+01  0.2467E+02
   1.610  0.2804E+01  0.2470E+02
   1.620  0.2823E+01  0.2473E+02
   1.630  0.2894E+01  0.2475E+02
   1.640  0.2882E+01  0.2478E+02
   1.650  0.2948E+01  0.2481E+02
   1.660  0.2795E+01  0.2484E+02
   1.670  0.2625E+01  0.2487E+02
   1.680  0.2540E+01  0.2489E+02
   1.690  0.2515E+01  0.2492E+02
   1.700  0.2495E+01  0.2494E+02
   1.710  0.2476E+01  0.2497E+02
   1.720  0.2461E+01  0.2499E+02
   1.730  0.2435E+01  0.2502E+02
   1.740  0.2419E+01  0.2504E+02
   1.750  0.2420E+01  0.2507E+02
   1.760  0.2430E+01  0.2509E+02
   1.770  0.2439E+01  0.2512E+02
   1.780  0.2447E+01  0.2514E+02
   1.790  0.2475E+01  0.2517E+02
   1.800  0.2518E+01  0.2519E+02
   1.810  0.2554E+01  0.2522E+02
   1.820  0.2589E+01  0.2524E+02
   1.830  0.2623E+01  0.2527E+02
   1.840  0.2671E+01  0.2529E+02
   1.850  0.2731E+01  0.2532E+02
   1.860  0.2748E+01  0.2535E+02
   1.870  0.3134E+01  0.2538E+02
   1.880  0.3231E+01  0.2541E+02
   1.890  0.3290E+01  0.2544E+02
   1.900  0.3332E+01  0.2547E+02
   1.910  0.3561E+01  0.2551E+02
   1.920  0.3677E+01  0.2555E+02
   1.930  0.3890E+01  0.2558E+02
   1.940  0.4101E+01  0.2562E+02
   1.950  0.4540E+01  0.2567E+02
   1.960  0.4746E+01  0.2571E+02
   1.970  0.4756E+01  0.2576E+02
   1.980  0.4842E+01  0.2581E+02
   1.990  0.4834E+01  0.2586E+02
   2.000  0.4854E+01  0.2590E+02
   2.010  0.4829E+01  0.2595E+02
   2.020  0.4883E+01  0.2600E+02
   2.030  0.4929E+01  0.2605E+02
   2.040  0.4838E+01  0.2610E+02
   2.050  0.4758E+01  0.2615E+02
   2.060  0.4720E+01  0.2619E+02
   2.070  0.4843E+01  0.2624E+02
   2.080  0.4951E+01  0.2629E+02
   2.090  0.5045E+01  0.2634E+02
   2.100  0.5185E+01  0.2639E+02
   2.110  0.5397E+01  0.2645E+02
   2.120  0.5426E+01  0.2650E+02
   2.130  0.5913E+01  0.2656E+02
   2.140  0.6242E+01  0.2662E+02
   2.150  0.6187E+01  0.2668E+02
   2.160  0.5141E+01  0.2674E+02
   2.170  0.3564E+01  0.2678E+02
   2.180  0.3348E+01  0.2682E+02
   2.190  0.3265E+01  0.2685E+02
   2.200  0.3243E+01  0.2688E+02
   2.210  0.3238E+01  0.2691E+02
   2.220  0.3227E+01  0.2695E+02
   2.230  0.3259E+01  0.2698E+02
   2.240  0.3277E+01  0.2701E+02
   2.250  0.3369E+01  0.2704E+02
   2.260  0.3459E+01  0.2708E+02
   2.270  0.3422E+01  0.2711E+02
   2.280  0.3414E+01  0.2715E+02
   2.290  0.3475E+01  0.2718E+02
   2.300  0.3575E+01  0.2722E+02
   2.310  0.3641E+01  0.2725E+02
   2.320  0.3786E+01  0.2729E+02
   2.330  0.3923E+01  0.2733E+02
   2.340  0.4070E+01  0.2737E+02
   2.350  0.4448E+01  0.2741E+02
   2.360  0.5155E+01  0.2746E+02
   2.370  0.5455E+01  0.2751E+02
   2.380  0.5068E+01  0.2757E+02
   2.390  0.4655E+01  0.2761E+02
   2.400  0.4593E+01  0.2766E+02
   2.410  0.4614E+01  0.2771E+02
   2.420  0.4655E+01  0.2775E+02
   2.430  0.4668E+01  0.2780E+02
   2.440  0.4757E+01  0.2785E+02
   2.450  0.5227E+01  0.2790E+02
   2.460  0.5350E+01  0.2795E+02
   2.470  0.4920E+01  0.2800E+02
   2.480  0.3573E+01  0.2805E+02
   2.490  0.3137E+01  0.2808E+02
   2.500  0.2798E+01  0.2811E+02
   2.510  0.2077E+01  0.2814E+02
   2.520  0.2064E+01  0.2816E+02
   2.530  0.2084E+01  0.2818E+02
   2.540  0.2076E+01  0.2820E+02
   2.550  0.2100E+01  0.2822E+02
   2.560  0.2157E+01  0.2824E+02
   2.570  0.2217E+01  0.2826E+02
   2.580  0.2271E+01  0.2828E+02
   2.590  0.2331E+01  0.2831E+02
   2.600  0.2395E+01  0.2833E+02
   2.610  0.2502E+01  0.2835E+02
   2.620  0.2636E+01  0.2838E+02
   2.630  0.2616E+01  0.2841E+02
   2.640  0.2666E+01  0.2843E+02
   2.650  0.2759E+01  0.2846E+02
   2.660  0.3366E+01  0.2849E+02
   2.670  0.3577E+01  0.2853E+02
   2.680  0.3315E+01  0.2856E+02
   2.690  0.2929E+01  0.2859E+02
   2.700  0.2835E+01  0.2862E+02
   2.710  0.2762E+01  0.2865E+02
   2.720  0.2732E+01  0.2868E+02
   2.730  0.2666E+01  0.2870E+02
   2.740  0.2642E+01  0.2873E+02
   2.750  0.2525E+01  0.2876E+02
   2.760  0.2591E+01  0.2878E+02
   2.770  0.2540E+01  0.2881E+02
   2.780  0.2406E+01  0.2883E+02
   2.790  0.2425E+01  0.2886E+02
   2.800  0.2260E+01  0.2888E+02
   2.810  0.2384E+01  0.2890E+02
   2.820  0.2181E+01  0.2893E+02
   2.830  0.1634E+01  0.2895E+02
   2.840  0.1514E+01  0.2896E+02
   2.850  0.1516E+01  0.2898E+02
   2.860  0.1519E+01  0.2899E+02
   2.870  0.1522E+01  0.2901E+02
   2.880  0.1528E+01  0.2902E+02
   2.890  0.1534E+01  0.2904E+02
   2.900  0.1535E+01  0.2906E+02
   2.910  0.1538E+01  0.2907E+02
   2.920  0.1542E+01  0.2909E+02
   2.930  0.1553E+01  0.2910E+02
   2.940  0.1565E+01  0.2912E+02
   2.950  0.1578E+01  0.2913E+02
   2.960  0.1589E+01  0.2915E+02
   2.970  0.1602E+01  0.2916E+02
   2.980  0.1614E+01  0.2918E+02
   2.990  0.1628E+01  0.2920E+02
   3.000  0.1642E+01  0.2921E+02
   3.010  0.1657E+01  0.2923E+02
   3.020  0.1673E+01  0.2925E+02
   3.030  0.1689E+01  0.2926E+02
   3.040  0.1707E+01  0.2928E+02
   3.050  0.1725E+01  0.2930E+02
   3.060  0.1754E+01  0.2931E+02
   3.070  0.1779E+01  0.2933E+02
   3.080  0.1803E+01  0.2935E+02
   3.090  0.1825E+01  0.2937E+02
   3.100  0.1850E+01  0.2939E+02
   3.110  0.1872E+01  0.2941E+02
   3.120  0.1895E+01  0.2942E+02
   3.130  0.1919E+01  0.2944E+02
   3.140  0.1942E+01  0.2946E+02
   3.150  0.1969E+01  0.2948E+02
   3.160  0.2000E+01  0.2950E+02
   3.170  0.2035E+01  0.2952E+02
   3.180  0.2078E+01  0.2954E+02
   3.190  0.2189E+01  0.2956E+02
   3.200  0.2266E+01  0.2959E+02
   3.210  0.2366E+01  0.2961E+02
   3.220  0.2432E+01  0.2963E+02
   3.230  0.2477E+01  0.2966E+02
   3.240  0.2498E+01  0.2968E+02
   3.250  0.2510E+01  0.2971E+02
   3.260  0.2514E+01  0.2973E+02
   3.270  0.2523E+01  0.2976E+02
   3.280  0.2546E+01  0.2978E+02
   3.290  0.2669E+01  0.2981E+02
   3.300  0.2925E+01  0.2984E+02
   3.310  0.2917E+01  0.2987E+02
   3.320  0.3021E+01  0.2990E+02
   3.330  0.2698E+01  0.2992E+02
   3.340  0.2518E+01  0.2995E+02
   3.350  0.2626E+01  0.2998E+02
   3.360  0.2464E+01  0.3000E+02
   3.370  0.2413E+01  0.3003E+02
   3.380  0.2431E+01  0.3005E+02
   3.390  0.2534E+01  0.3007E+02
   3.400  0.2439E+01  0.3010E+02
   3.410  0.1927E+01  0.3012E+02
   3.420  0.1839E+01  0.3014E+02
   3.430  0.1837E+01  0.3016E+02
   3.440  0.1813E+01  0.3018E+02
   3.450  0.1811E+01  0.3020E+02
   3.460  0.1812E+01  0.3021E+02
   3.470  0.1814E+01  0.3023E+02
   3.480  0.1814E+01  0.3025E+02
   3.490  0.1827E+01  0.3027E+02
   3.500  0.1844E+01  0.3029E+02
   3.510  0.1875E+01  0.3031E+02
   3.520  0.1894E+01  0.3033E+02
   3.530  0.1915E+01  0.3034E+02
   3.540  0.1936E+01  0.3036E+02
   3.550  0.2174E+01  0.3038E+02
   3.560  0.1960E+01  0.3040E+02
   3.570  0.1979E+01  0.3042E+02
   3.580  0.2095E+01  0.3044E+02
   3.590  0.2351E+01  0.3047E+02
   3.600  0.2353E+01  0.3049E+02
   3.610  0.2462E+01  0.3051E+02
   3.620  0.2256E+01  0.3054E+02
   3.630  0.1986E+01  0.3056E+02
   3.640  0.2120E+01  0.3058E+02
   3.650  0.2047E+01  0.3060E+02
   3.660  0.2078E+01  0.3062E+02
   3.670  0.2154E+01  0.3064E+02
   3.680  0.2305E+01  0.3066E+02
   3.690  0.2237E+01  0.3069E+02
   3.700  0.2393E+01  0.3071E+02
   3.710  0.2352E+01  0.3073E+02
   3.720  0.2412E+01  0.3076E+02
   3.730  0.2587E+01  0.3078E+02
   3.740  0.2766E+01  0.3081E+02
   3.750  0.3100E+01  0.3084E+02
   3.760  0.2969E+01  0.3087E+02
   3.770  0.2871E+01  0.3090E+02
   3.780  0.2769E+01  0.3093E+02
   3.790  0.2790E+01  0.3096E+02
   3.800  0.2829E+01  0.3098E+02
   3.810  0.2892E+01  0.3101E+02
   3.820  0.2858E+01  0.3104E+02
   3.830  0.2831E+01  0.3107E+02
   3.840  0.3012E+01  0.3110E+02
   3.850  0.2767E+01  0.3113E+02
   3.860  0.2812E+01  0.3115E+02
   3.870  0.2930E+01  0.3118E+02
   3.880  0.2851E+01  0.3121E+02
   3.890  0.2749E+01  0.3124E+02
   3.900  0.2574E+01  0.3127E+02
   3.910  0.2356E+01  0.3129E+02
   3.920  0.2203E+01  0.3131E+02
   3.930  0.2144E+01  0.3133E+02
   3.940  0.2237E+01  0.3136E+02
   3.950  0.2295E+01  0.3138E+02
   3.960  0.2210E+01  0.3140E+02
   3.970  0.2153E+01  0.3142E+02
   3.980  0.2036E+01  0.3144E+02
   3.990  0.2204E+01  0.3147E+02
   4.000  0.2232E+01  0.3149E+02
   4.010  0.2341E+01  0.3151E+02
   4.020  0.2504E+01  0.3153E+02
   4.030  0.2702E+01  0.3156E+02
   4.040  0.3672E+01  0.3159E+02
   4.050  0.4088E+01  0.3163E+02
   4.060  0.4080E+01  0.3167E+02
   4.070  0.4081E+01  0.3171E+02
   4.080  0.3760E+01  0.3175E+02
   4.090  0.3874E+01  0.3179E+02
   4.100  0.3818E+01  0.3183E+02
   4.110  0.4027E+01  0.3187E+02
   4.120  0.4219E+01  0.3191E+02
   4.130  0.4852E+01  0.3196E+02
   4.140  0.5602E+01  0.3201E+02
   4.150  0.5924E+01  0.3207E+02
   4.160  0.6127E+01  0.3213E+02
   4.170  0.6112E+01  0.3219E+02
   4.180  0.6097E+01  0.3225E+02
   4.190  0.6235E+01  0.3231E+02
   4.200  0.6437E+01  0.3237E+02
   4.210  0.6831E+01  0.3244E+02
   4.220  0.7705E+01  0.3251E+02
   4.230  0.8454E+01  0.3259E+02
   4.240  0.7689E+01  0.3268E+02
   4.250  0.7767E+01  0.3275E+02
   4.260  0.7333E+01  0.3283E+02
   4.270  0.6958E+01  0.3290E+02
   4.280  0.6538E+01  0.3297E+02
   4.290  0.6198E+01  0.3303E+02
   4.300  0.5981E+01  0.3309E+02
   4.310  0.5909E+01  0.3315E+02
   4.320  0.6535E+01  0.3321E+02
   4.330  0.6839E+01  0.3328E+02
   4.340  0.7067E+01  0.3335E+02
   4.350  0.7176E+01  0.3343E+02
   4.360  0.7506E+01  0.3350E+02
   4.370  0.7528E+01  0.3357E+02
   4.380  0.7806E+01  0.3365E+02
   4.390  0.7513E+01  0.3372E+02
   4.400  0.7073E+01  0.3380E+02
   4.410  0.6876E+01  0.3387E+02
   4.420  0.6487E+01  0.3393E+02
   4.430  0.6400E+01  0.3400E+02
   4.440  0.6272E+01  0.3406E+02
   4.450  0.6257E+01  0.3412E+02
   4.460  0.6174E+01  0.3419E+02
   4.470  0.6088E+01  0.3425E+02
   4.480  0.6317E+01  0.3431E+02
   4.490  0.6262E+01  0.3437E+02
   4.500  0.5823E+01  0.3443E+02
   4.510  0.6237E+01  0.3449E+02
   4.520  0.6855E+01  0.3456E+02
   4.530  0.7918E+01  0.3463E+02
   4.540  0.9882E+01  0.3472E+02
   4.550  0.8478E+01  0.3482E+02
   4.560  0.7327E+01  0.3490E+02
   4.570  0.6699E+01  0.3497E+02
   4.580  0.6174E+01  0.3503E+02
   4.590  0.5921E+01  0.3509E+02
   4.600  0.5532E+01  0.3515E+02
   4.610  0.5384E+01  0.3520E+02
   4.620  0.5145E+01  0.3525E+02
   4.630  0.5042E+01  0.3531E+02
   4.640  0.4917E+01  0.3536E+02
   4.650  0.4800E+01  0.3540E+02
   4.660  0.4707E+01  0.3545E+02
   4.670  0.4602E+01  0.3550E+02
   4.680  0.4709E+01  0.3554E+02
   4.690  0.4163E+01  0.3559E+02
   4.700  0.4132E+01  0.3563E+02
   4.710  0.3670E+01  0.3567E+02
   4.720  0.3189E+01  0.3570E+02
   4.730  0.2877E+01  0.3573E+02
   4.740  0.2673E+01  0.3576E+02
   4.750  0.2262E+01  0.3578E+02
   4.760  0.2230E+01  0.3581E+02
   4.770  0.2184E+01  0.3583E+02
   4.780  0.1708E+01  0.3585E+02
   4.790  0.8124E+00  0.3586E+02
   4.800  0.4947E+00  0.3587E+02
   4.810  0.4917E+00  0.3588E+02
   4.820  0.4941E+00  0.3588E+02
   4.830  0.4959E+00  0.3589E+02
   4.840  0.4911E+00  0.3589E+02
   4.850  0.5030E+00  0.3590E+02
   4.860  0.4882E+00  0.3590E+02
   4.870  0.4734E+00  0.3590E+02
   4.880  0.4585E+00  0.3591E+02
   4.890  0.4574E+00  0.3591E+02
   4.900  0.4614E+00  0.3592E+02
   4.910  0.4426E+00  0.3592E+02
   4.920  0.4806E+00  0.3593E+02
   4.930  0.4621E+00  0.3593E+02
   4.940  0.4540E+00  0.3594E+02
   4.950  0.4484E+00  0.3594E+02
   4.960  0.4657E+00  0.3595E+02
   4.970  0.4752E+00  0.3595E+02
   4.980  0.4850E+00  0.3596E+02
   4.990  0.4589E+00  0.3596E+02
   5.000  0.4330E+00  0.3596E+02
   5.010  0.4155E+00  0.3597E+02
   5.020  0.4483E+00  0.3597E+02
   5.030  0.4522E+00  0.3598E+02
   5.040  0.4123E+00  0.3598E+02
   5.050  0.3795E+00  0.3599E+02
   5.060  0.4317E+00  0.3599E+02
   5.070  0.3372E+00  0.3600E+02
   5.080  0.2447E+00  0.3600E+02
   5.090  0.0000E+00  0.3600E+02
   5.100  0.0000E+00  0.3600E+02
   5.110  0.0000E+00  0.3600E+02
   5.120  0.0000E+00  0.3600E+02
   5.130  0.0000E+00  0.3600E+02
   5.140  0.0000E+00  0.3600E+02
   5.150  0.0000E+00  0.3600E+02
   5.160  0.0000E+00  0.3600E+02
   5.170  0.0000E+00  0.3600E+02
   5.180  0.0000E+00  0.3600E+02
   5.190  0.0000E+00  0.3600E+02
   5.200  0.0000E+00  0.3600E+02
   5.210  0.0000E+00  0.3600E+02
   5.220  0.0000E+00  0.3600E+02
   5.230  0.0000E+00  0.3600E+02
   5.240  0.0000E+00  0.3600E+02
   5.250  0.0000E+00  0.3600E+02
   5.260  0.0000E+00  0.3600E+02
   5.270  0.0000E+00  0.3600E+02
   5.280  0.0000E+00  0.3600E+02
   5.290  0.0000E+00  0.3600E+02
   5.300  0.0000E+00  0.3600E+02
   5.310  0.0000E+00  0.3600E+02
   5.320  0.0000E+00  0.3600E+02
   5.330  0.0000E+00  0.3600E+02
   5.340  0.0000E+00  0.3600E+02
   5.350  0.0000E+00  0.3600E+02
   5.360  0.0000E+00  0.3600E+02
   5.370  0.0000E+00  0.3600E+02
   5.380  0.0000E+00  0.3600E+02
   5.390  0.0000E+00  0.3600E+02
   5.400  0.0000E+00  0.3600E+02
   5.410  0.0000E+00  0.3600E+02
   5.420  0.0000E+00  0.3600E+02
   5.430  0.0000E+00  0.3600E+02
   5.440  0.0000E+00  0.3600E+02
   5.450  0.0000E+00  0.3600E+02
   5.460  0.0000E+00  0.3600E+02
   5.470  0.0000E+00  0.3600E+02
   5.480  0.0000E+00  0.3600E+02
   5.490  0.0000E+00  0.3600E+02
   5.500  0.0000E+00  0.3600E+02
   5.510  0.0000E+00  0.3600E+02
   5.520  0.0000E+00  0.3600E+02
   5.530  0.0000E+00  0.3600E+02
   5.540  0.0000E+00  0.3600E+02
   5.550  0.0000E+00  0.3600E+02
   5.560  0.0000E+00  0.3600E+02
   5.570  0.0000E+00  0.3600E+02
   5.580  0.0000E+00  0.3600E+02
   5.590  0.0000E+00  0.3600E+02
   5.600  0.0000E+00  0.3600E+02
   5.610  0.0000E+00  0.3600E+02
   5.620  0.0000E+00  0.3600E+02
   5.630  0.0000E+00  0.3600E+02
   5.640  0.0000E+00  0.3600E+02
   5.650  0.0000E+00  0.3600E+02
   5.660  0.0000E+00  0.3600E+02
   5.670  0.0000E+00  0.3600E+02
   5.680  0.0000E+00  0.3600E+02
   5.690  0.0000E+00  0.3600E+02
   5.700  0.0000E+00  0.3600E+02
   5.710  0.0000E+00  0.3600E+02
   5.720  0.0000E+00  0.3600E+02
   5.730  0.0000E+00  0.3600E+02
   5.740  0.0000E+00  0.3600E+02
   5.750  0.0000E+00  0.3600E+02
   5.760  0.0000E+00  0.3600E+02
   5.770  0.0000E+00  0.3600E+02
   5.780  0.0000E+00  0.3600E+02
   5.790  0.0000E+00  0.3600E+02
   5.800  0.0000E+00  0.3600E+02
   5.810  0.0000E+00  0.3600E+02
   5.820  0.0000E+00  0.3600E+02
   5.830  0.0000E+00  0.3600E+02
   5.840  0.0000E+00  0.3600E+02
   5.850  0.0000E+00  0.3600E+02
   5.860  0.0000E+00  0.3600E+02
   5.870  0.0000E+00  0.3600E+02
   5.880  0.0000E+00  0.3600E+02
   5.890  0.0000E+00  0.3600E+02
   5.900  0.0000E+00  0.3600E+02
   5.910  0.0000E+00  0.3600E+02
   5.920  0.0000E+00  0.3600E+02
   5.930  0.0000E+00  0.3600E+02
   5.940  0.0000E+00  0.3600E+02
   5.950  0.0000E+00  0.3600E+02
   5.960  0.0000E+00  0.3600E+02
   5.970  0.0000E+00  0.3600E+02
   5.980  0.0000E+00  0.3600E+02
   5.990  0.0000E+00  0.3600E+02
   6.000  0.0000E+00  0.3600E+02
   6.010  0.0000E+00  0.3600E+02
   6.020  0.0000E+00  0.3600E+02
   6.030  0.0000E+00  0.3600E+02
   6.040  0.0000E+00  0.3600E+02
   6.050  0.0000E+00  0.3600E+02
   6.060  0.0000E+00  0.3600E+02
   6.070  0.0000E+00  0.3600E+02
   6.080  0.0000E+00  0.3600E+02
   6.090  0.0000E+00  0.3600E+02
   6.100  0.0000E+00  0.3600E+02
   6.110  0.0000E+00  0.3600E+02
   6.120  0.0000E+00  0.3600E+02
   6.130  0.0000E+00  0.3600E+02
   6.140  0.0000E+00  0.3600E+02
   6.150  0.0000E+00  0.3600E+02
   6.160  0.0000E+00  0.3600E+02
   6.170  0.0000E+00  0.3600E+02
   6.180  0.0000E+00  0.3600E+02
   6.190  0.0000E+00  0.3600E+02
   6.200  0.0000E+00  0.3600E+02
   6.210  0.0000E+00  0.3600E+02
   6.220  0.0000E+00  0.3600E+02
   6.230  0.0000E+00  0.3600E+02
   6.240  0.0000E+00  0.3600E+02
   6.250  0.0000E+00  0.3600E+02
   6.260  0.0000E+00  0.3600E+02
   6.270  0.1010E-02  0.3600E+02
   6.280  0.6688E-02  0.3600E+02
   6.290  0.1066E-01  0.3600E+02
   6.300  0.1515E-01  0.3600E+02
   6.310  0.2017E-01  0.3600E+02
   6.320  0.2620E-01  0.3600E+02
   6.330  0.3110E-01  0.3600E+02
   6.340  0.3575E-01  0.3600E+02
   6.350  0.4072E-01  0.3600E+02
   6.360  0.4601E-01  0.3600E+02
   6.370  0.5160E-01  0.3600E+02
   6.380  0.5733E-01  0.3600E+02
   6.390  0.6277E-01  0.3600E+02
   6.400  0.6806E-01  0.3600E+02
   6.410  0.7322E-01  0.3601E+02
   6.420  0.7850E-01  0.3601E+02
   6.430  0.8400E-01  0.3601E+02
   6.440  0.8974E-01  0.3601E+02
   6.450  0.9570E-01  0.3601E+02
   6.460  0.1018E+00  0.3601E+02
   6.470  0.1074E+00  0.3601E+02
   6.480  0.1131E+00  0.3601E+02
   6.490  0.1189E+00  0.3601E+02
   6.500  0.1246E+00  0.3601E+02
   6.510  0.1803E+00  0.3602E+02
   6.520  0.5538E+00  0.3602E+02
   6.530  0.9026E+00  0.3603E+02
   6.540  0.8857E+00  0.3604E+02
   6.550  0.9821E+00  0.3605E+02
   6.560  0.1029E+01  0.3606E+02
   6.570  0.9221E+00  0.3607E+02
   6.580  0.9414E+00  0.3607E+02
   6.590  0.9954E+00  0.3608E+02
   6.600  0.9996E+00  0.3609E+02
   6.610  0.1009E+01  0.3610E+02
   6.620  0.9772E+00  0.3611E+02
   6.630  0.9756E+00  0.3612E+02
   6.640  0.1014E+01  0.3613E+02
   6.650  0.1012E+01  0.3614E+02
   6.660  0.1014E+01  0.3615E+02
   6.670  0.1041E+01  0.3616E+02
   6.680  0.1060E+01  0.3617E+02
   6.690  0.1059E+01  0.3619E+02
   6.700  0.1071E+01  0.3620E+02
   6.710  0.1327E+01  0.3621E+02
   6.720  0.1417E+01  0.3622E+02
   6.730  0.1483E+01  0.3624E+02
   6.740  0.1584E+01  0.3625E+02
   6.750  0.1707E+01  0.3627E+02
   6.760  0.1587E+01  0.3629E+02
   6.770  0.1667E+01  0.3630E+02
   6.780  0.1736E+01  0.3632E+02
   6.790  0.1748E+01  0.3634E+02
   6.800  0.1799E+01  0.3635E+02
   6.810  0.1886E+01  0.3637E+02
   6.820  0.1986E+01  0.3639E+02
   6.830  0.1999E+01  0.3641E+02
   6.840  0.2289E+01  0.3643E+02
   6.850  0.2670E+01  0.3646E+02
   6.860  0.2917E+01  0.3649E+02
   6.870  0.2746E+01  0.3652E+02
   6.880  0.2672E+01  0.3654E+02
   6.890  0.2712E+01  0.3657E+02
   6.900  0.2533E+01  0.3660E+02
   6.910  0.2386E+01  0.3662E+02
   6.920  0.2356E+01  0.3664E+02
   6.930  0.2300E+01  0.3667E+02
   6.940  0.2272E+01  0.3669E+02
   6.950  0.2253E+01  0.3671E+02
   6.960  0.2222E+01  0.3674E+02
   6.970  0.2351E+01  0.3676E+02
   6.980  0.2511E+01  0.3678E+02
   6.990  0.2501E+01  0.3681E+02
   7.000  0.2545E+01  0.3683E+02
   7.010  0.2602E+01  0.3686E+02
   7.020  0.2653E+01  0.3689E+02
   7.030  0.2529E+01  0.3691E+02
   7.040  0.2556E+01  0.3694E+02
   7.050  0.2602E+01  0.3696E+02
   7.060  0.2588E+01  0.3699E+02
   7.070  0.2646E+01  0.3702E+02
   7.080  0.2690E+01  0.3704E+02
   7.090  0.2704E+01  0.3707E+02
   7.100  0.2791E+01  0.3710E+02
   7.110  0.2816E+01  0.3713E+02
   7.120  0.3026E+01  0.3715E+02
   7.130  0.3170E+01  0.3719E+02
   7.140  0.3629E+01  0.3722E+02
   7.150  0.4181E+01  0.3726E+02
   7.160  0.3319E+01  0.3729E+02
   7.170  0.3041E+01  0.3733E+02
   7.180  0.2839E+01  0.3735E+02
   7.190  0.2717E+01  0.3738E+02
   7.200  0.2670E+01  0.3741E+02
   7.210  0.2615E+01  0.3744E+02
   7.220  0.2525E+01  0.3746E+02
   7.230  0.2454E+01  0.3749E+02
   7.240  0.2416E+01  0.3751E+02
   7.250  0.2369E+01  0.3753E+02
   7.260  0.2332E+01  0.3756E+02
   7.270  0.2290E+01  0.3758E+02
   7.280  0.2270E+01  0.3760E+02
   7.290  0.2243E+01  0.3763E+02
   7.300  0.2224E+01  0.3765E+02
   7.310  0.2199E+01  0.3767E+02
   7.320  0.2165E+01  0.3769E+02
   7.330  0.2137E+01  0.3771E+02
   7.340  0.2125E+01  0.3774E+02
   7.350  0.2111E+01  0.3776E+02
   7.360  0.2102E+01  0.3778E+02
   7.370  0.2087E+01  0.3780E+02
   7.380  0.2060E+01  0.3782E+02
   7.390  0.2030E+01  0.3784E+02
   7.400  0.2021E+01  0.3786E+02
   7.410  0.2009E+01  0.3788E+02
   7.420  0.1997E+01  0.3790E+02
   7.430  0.1979E+01  0.3792E+02
   7.440  0.1964E+01  0.3794E+02
   7.450  0.1951E+01  0.3796E+02
   7.460  0.1935E+01  0.3798E+02
   7.470  0.1921E+01  0.3800E+02
   7.480  0.1910E+01  0.3802E+02
   7.490  0.1900E+01  0.3804E+02
   7.500  0.1890E+01  0.3806E+02
   7.510  0.1878E+01  0.3807E+02
   7.520  0.1869E+01  0.3809E+02
   7.530  0.1858E+01  0.3811E+02
   7.540  0.1839E+01  0.3813E+02
   7.550  0.1831E+01  0.3815E+02
   7.560  0.1829E+01  0.3817E+02
   7.570  0.1828E+01  0.3819E+02
   7.580  0.1823E+01  0.3820E+02
   7.590  0.1816E+01  0.3822E+02
   7.600  0.1810E+01  0.3824E+02
   7.610  0.1808E+01  0.3826E+02
   7.620  0.1793E+01  0.3828E+02
   7.630  0.1779E+01  0.3829E+02
   7.640  0.1767E+01  0.3831E+02
   7.650  0.1762E+01  0.3833E+02
   7.660  0.1763E+01  0.3835E+02
   7.670  0.1762E+01  0.3836E+02
   7.680  0.1761E+01  0.3838E+02
   7.690  0.1760E+01  0.3840E+02
   7.700  0.1759E+01  0.3842E+02
   7.710  0.1756E+01  0.3844E+02
   7.720  0.1749E+01  0.3845E+02
   7.730  0.1744E+01  0.3847E+02
   7.740  0.1739E+01  0.3849E+02
   7.750  0.1734E+01  0.3850E+02
   7.760  0.1731E+01  0.3852E+02
   7.770  0.1735E+01  0.3854E+02
   7.780  0.1741E+01  0.3856E+02
   7.790  0.1744E+01  0.3857E+02
   7.800  0.1748E+01  0.3859E+02
   7.810  0.1746E+01  0.3861E+02
   7.820  0.1742E+01  0.3863E+02
   7.830  0.1739E+01  0.3864E+02
   7.840  0.1739E+01  0.3866E+02
   7.850  0.1743E+01  0.3868E+02
   7.860  0.1746E+01  0.3870E+02
   7.870  0.1751E+01  0.3871E+02
   7.880  0.1760E+01  0.3873E+02
   7.890  0.1771E+01  0.3875E+02
   7.900  0.1785E+01  0.3877E+02
   7.910  0.1791E+01  0.3878E+02
   7.920  0.1798E+01  0.3880E+02
   7.930  0.1812E+01  0.3882E+02
   7.940  0.1822E+01  0.3884E+02
   7.950  0.1837E+01  0.3886E+02
   7.960  0.1863E+01  0.3888E+02
   7.970  0.1906E+01  0.3889E+02
   7.980  0.1947E+01  0.3891E+02
   7.990  0.2001E+01  0.3893E+02
   8.000  0.2063E+01  0.3895E+02
   8.010  0.2122E+01  0.3897E+02
   8.020  0.2178E+01  0.3900E+02
   8.030  0.2193E+01  0.3902E+02
   8.040  0.1932E+01  0.3904E+02
   8.050  0.1880E+01  0.3906E+02
   8.060  0.1845E+01  0.3908E+02
   8.070  0.1802E+01  0.3909E+02
   8.080  0.1766E+01  0.3911E+02
   8.090  0.1740E+01  0.3913E+02
   8.100  0.1716E+01  0.3915E+02
   8.110  0.1696E+01  0.3916E+02
   8.120  0.1769E+01  0.3918E+02
   8.130  0.1681E+01  0.3920E+02
   8.140  0.1622E+01  0.3922E+02
   8.150  0.1620E+01  0.3923E+02
   8.160  0.1613E+01  0.3925E+02
   8.170  0.1606E+01  0.3926E+02
   8.180  0.1602E+01  0.3928E+02
   8.190  0.1598E+01  0.3930E+02
   8.200  0.1594E+01  0.3931E+02
   8.210  0.1583E+01  0.3933E+02
   8.220  0.1574E+01  0.3934E+02
   8.230  0.1570E+01  0.3936E+02
   8.240  0.1582E+01  0.3938E+02
   8.250  0.1603E+01  0.3939E+02
   8.260  0.1624E+01  0.3941E+02
   8.270  0.1646E+01  0.3942E+02
   8.280  0.1679E+01  0.3944E+02
   8.290  0.1764E+01  0.3946E+02
   8.300  0.1748E+01  0.3947E+02
   8.310  0.1762E+01  0.3949E+02
   8.320  0.1863E+01  0.3951E+02
   8.330  0.1911E+01  0.3953E+02
   8.340  0.1875E+01  0.3955E+02
   8.350  0.1831E+01  0.3957E+02
   8.360  0.1789E+01  0.3959E+02
   8.370  0.1774E+01  0.3960E+02
   8.380  0.1703E+01  0.3962E+02
   8.390  0.1648E+01  0.3964E+02
   8.400  0.1595E+01  0.3965E+02
   8.410  0.1561E+01  0.3967E+02
   8.420  0.1511E+01  0.3968E+02
   8.430  0.1455E+01  0.3970E+02
   8.440  0.1396E+01  0.3971E+02
   8.450  0.1344E+01  0.3973E+02
   8.460  0.1292E+01  0.3974E+02
   8.470  0.1253E+01  0.3975E+02
   8.480  0.1237E+01  0.3977E+02
   8.490  0.1266E+01  0.3978E+02
   8.500  0.1108E+01  0.3979E+02
   8.510  0.1043E+01  0.3980E+02
   8.520  0.9974E+00  0.3981E+02
   8.530  0.9547E+00  0.3982E+02
   8.540  0.9306E+00  0.3983E+02
   8.550  0.9178E+00  0.3984E+02
   8.560  0.9067E+00  0.3985E+02
   8.570  0.8888E+00  0.3986E+02
   8.580  0.8712E+00  0.3987E+02
   8.590  0.8362E+00  0.3987E+02
   8.600  0.7880E+00  0.3988E+02
   8.610  0.7557E+00  0.3989E+02
   8.620  0.7070E+00  0.3990E+02
   8.630  0.6269E+00  0.3990E+02
   8.640  0.5854E+00  0.3991E+02
   8.650  0.5724E+00  0.3992E+02
   8.660  0.5813E+00  0.3992E+02
   8.670  0.5772E+00  0.3993E+02
   8.680  0.5596E+00  0.3993E+02
   8.690  0.5401E+00  0.3994E+02
   8.700  0.5371E+00  0.3994E+02
   8.710  0.5270E+00  0.3995E+02
   8.720  0.5334E+00  0.3996E+02
   8.730  0.5500E+00  0.3996E+02
   8.740  0.5685E+00  0.3997E+02
   8.750  0.5974E+00  0.3997E+02
   8.760  0.6391E+00  0.3998E+02
   8.770  0.8376E+00  0.3999E+02
   8.780  0.4748E+00  0.3999E+02
   8.790  0.3241E+00  0.4000E+02
   8.800  0.2806E+00  0.4000E+02
   8.810  0.3251E+00  0.4000E+02
   8.820  0.3769E+00  0.4000E+02
   8.830  0.3780E+00  0.4001E+02
   8.840  0.4005E+00  0.4001E+02
   8.850  0.4792E+00  0.4002E+02
   8.860  0.7046E+00  0.4002E+02
   8.870  0.9561E+00  0.4003E+02
   8.880  0.1279E+01  0.4004E+02
   8.890  0.1343E+01  0.4006E+02
   8.900  0.1470E+01  0.4007E+02
   8.910  0.1561E+01  0.4008E+02
   8.920  0.1808E+01  0.4010E+02
   8.930  0.2090E+01  0.4012E+02
   8.940  0.2372E+01  0.4014E+02
   8.950  0.2758E+01  0.4017E+02
   8.960  0.3195E+01  0.4020E+02
   8.970  0.3594E+01  0.4023E+02
   8.980  0.3610E+01  0.4027E+02
   8.990  0.3707E+01  0.4031E+02
   9.000  0.3718E+01  0.4034E+02
   9.010  0.3648E+01  0.4038E+02
   9.020  0.3571E+01  0.4042E+02
   9.030  0.3825E+01  0.4045E+02
   9.040  0.3958E+01  0.4049E+02
   9.050  0.3891E+01  0.4053E+02
   9.060  0.3737E+01  0.4057E+02
   9.070  0.3701E+01  0.4061E+02
   9.080  0.3723E+01  0.4064E+02
   9.090  0.3799E+01  0.4068E+02
   9.100  0.6715E+01  0.4072E+02
   9.110  0.4116E+01  0.4077E+02
   9.120  0.3530E+01  0.4081E+02
   9.130  0.3341E+01  0.4085E+02
   9.140  0.3184E+01  0.4088E+02
   9.150  0.3023E+01  0.4091E+02
   9.160  0.2995E+01  0.4094E+02
   9.170  0.3055E+01  0.4097E+02
   9.180  0.3154E+01  0.4100E+02
   9.190  0.3305E+01  0.4103E+02
   9.200  0.3607E+01  0.4107E+02
   9.210  0.3927E+01  0.4111E+02
   9.220  0.4160E+01  0.4115E+02
   9.230  0.4194E+01  0.4119E+02
   9.240  0.4197E+01  0.4123E+02
   9.250  0.4292E+01  0.4127E+02
   9.260  0.4456E+01  0.4132E+02
   9.270  0.4652E+01  0.4136E+02
   9.280  0.4940E+01  0.4141E+02
   9.290  0.5210E+01  0.4146E+02
   9.300  0.5406E+01  0.4151E+02
   9.310  0.5595E+01  0.4157E+02
   9.320  0.5997E+01  0.4163E+02
   9.330  0.6246E+01  0.4169E+02
   9.340  0.6124E+01  0.4175E+02
   9.350  0.5861E+01  0.4181E+02
   9.360  0.5486E+01  0.4187E+02
   9.370  0.5087E+01  0.4192E+02
   9.380  0.4595E+01  0.4197E+02
   9.390  0.4446E+01  0.4201E+02
   9.400  0.4198E+01  0.4206E+02
   9.410  0.4195E+01  0.4210E+02
   9.420  0.4145E+01  0.4214E+02
   9.430  0.4223E+01  0.4218E+02
   9.440  0.4197E+01  0.4222E+02
   9.450  0.4087E+01  0.4227E+02
   9.460  0.4244E+01  0.4231E+02
   9.470  0.5283E+01  0.4236E+02
   9.480  0.4720E+01  0.4241E+02
   9.490  0.4565E+01  0.4245E+02
   9.500  0.4424E+01  0.4250E+02
   9.510  0.4286E+01  0.4254E+02
   9.520  0.4151E+01  0.4258E+02
   9.530  0.3997E+01  0.4263E+02
   9.540  0.3913E+01  0.4266E+02
   9.550  0.4119E+01  0.4270E+02
   9.560  0.4276E+01  0.4275E+02
   9.570  0.4390E+01  0.4279E+02
   9.580  0.4339E+01  0.4283E+02
   9.590  0.4076E+01  0.4288E+02
   9.600  0.3990E+01  0.4292E+02
   9.610  0.3920E+01  0.4296E+02
   9.620  0.3853E+01  0.4299E+02
   9.630  0.3810E+01  0.4303E+02
   9.640  0.3669E+01  0.4307E+02
   9.650  0.3472E+01  0.4311E+02
   9.660  0.3254E+01  0.4314E+02
   9.670  0.2844E+01  0.4317E+02
   9.680  0.2581E+01  0.4320E+02
   9.690  0.2431E+01  0.4322E+02
   9.700  0.2302E+01  0.4325E+02
   9.710  0.2288E+01  0.4327E+02
   9.720  0.2416E+01  0.4329E+02
   9.730  0.2335E+01  0.4332E+02
   9.740  0.2344E+01  0.4334E+02
   9.750  0.2294E+01  0.4336E+02
   9.760  0.2223E+01  0.4339E+02
   9.770  0.2121E+01  0.4341E+02
   9.780  0.2037E+01  0.4343E+02
   9.790  0.2000E+01  0.4345E+02
   9.800  0.2009E+01  0.4347E+02
   9.810  0.2032E+01  0.4349E+02
   9.820  0.2080E+01  0.4351E+02
   9.830  0.2159E+01  0.4353E+02
   9.840  0.2282E+01  0.4355E+02
   9.850  0.2467E+01  0.4358E+02
   9.860  0.2662E+01  0.4360E+02
   9.870  0.2828E+01  0.4363E+02
   9.880  0.2987E+01  0.4366E+02
   9.890  0.3237E+01  0.4369E+02
   9.900  0.3562E+01  0.4372E+02
   9.910  0.4042E+01  0.4376E+02
   9.920  0.4675E+01  0.4380E+02
   9.930  0.5327E+01  0.4385E+02
   9.940  0.5918E+01  0.4391E+02
   9.950  0.6380E+01  0.4397E+02
   9.960  0.6603E+01  0.4404E+02
   9.970  0.7021E+01  0.4411E+02
   9.980  0.7470E+01  0.4418E+02
   9.990  0.6563E+01  0.4425E+02
  10.000  0.5783E+01  0.4431E+02
  10.010  0.5518E+01  0.4437E+02
  10.020  0.4867E+01  0.4442E+02
  10.030  0.4459E+01  0.4446E+02
  10.040  0.4149E+01  0.4451E+02
  10.050  0.3798E+01  0.4455E+02
  10.060  0.3601E+01  0.4458E+02
  10.070  0.3401E+01  0.4462E+02
  10.080  0.3110E+01  0.4465E+02
  10.090  0.3023E+01  0.4468E+02
  10.100  0.3193E+01  0.4471E+02
  10.110  0.4221E+01  0.4475E+02
  10.120  0.4655E+01  0.4479E+02
  10.130  0.4494E+01  0.4484E+02
  10.140  0.4487E+01  0.4488E+02
  10.150  0.4459E+01  0.4493E+02
  10.160  0.4491E+01  0.4497E+02
  10.170  0.4548E+01  0.4502E+02
  10.180  0.4562E+01  0.4506E+02
  10.190  0.4585E+01  0.4511E+02
  10.200  0.4728E+01  0.4516E+02
  10.210  0.5059E+01  0.4521E+02
  10.220  0.5839E+01  0.4526E+02
  10.230  0.7223E+01  0.4532E+02
  10.240  0.7617E+01  0.4540E+02
  10.250  0.7541E+01  0.4548E+02
  10.260  0.7351E+01  0.4555E+02
  10.270  0.7001E+01  0.4562E+02
  10.280  0.6747E+01  0.4569E+02
  10.290  0.6669E+01  0.4576E+02
  10.300  0.6854E+01  0.4583E+02
  10.310  0.7003E+01  0.4590E+02
  10.320  0.6528E+01  0.4596E+02
  10.330  0.6293E+01  0.4603E+02
  10.340  0.6059E+01  0.4609E+02
  10.350  0.5938E+01  0.4615E+02
  10.360  0.6013E+01  0.4621E+02
  10.370  0.5688E+01  0.4627E+02
  10.380  0.5467E+01  0.4632E+02
  10.390  0.5237E+01  0.4638E+02
  10.400  0.5176E+01  0.4643E+02
  10.410  0.4918E+01  0.4648E+02
  10.420  0.4134E+01  0.4652E+02
  10.430  0.4315E+01  0.4657E+02
  10.440  0.4403E+01  0.4661E+02
  10.450  0.4537E+01  0.4665E+02
  10.460  0.4733E+01  0.4670E+02
  10.470  0.4959E+01  0.4675E+02
  10.480  0.5187E+01  0.4680E+02
  10.490  0.5512E+01  0.4685E+02
  10.500  0.5908E+01  0.4691E+02
  10.510  0.5930E+01  0.4697E+02
  10.520  0.5876E+01  0.4703E+02
  10.530  0.5900E+01  0.4709E+02
  10.540  0.5962E+01  0.4715E+02
  10.550  0.5985E+01  0.4721E+02
  10.560  0.6010E+01  0.4727E+02
  10.570  0.6007E+01  0.4733E+02
  10.580  0.5980E+01  0.4739E+02
  10.590  0.5995E+01  0.4745E+02
  10.600  0.6105E+01  0.4751E+02
  10.610  0.6363E+01  0.4757E+02
  10.620  0.5942E+01  0.4763E+02
  10.630  0.5778E+01  0.4769E+02
  10.640  0.6211E+01  0.4775E+02
  10.650  0.6428E+01  0.4781E+02
  10.660  0.5413E+01  0.4788E+02
  10.670  0.5254E+01  0.4793E+02
  10.680  0.5412E+01  0.4798E+02
  10.690  0.5582E+01  0.4804E+02
  10.700  0.5668E+01  0.4809E+02
  10.710  0.5727E+01  0.4815E+02
  10.720  0.5782E+01  0.4821E+02
  10.730  0.5776E+01  0.4827E+02
  10.740  0.5448E+01  0.4832E+02
  10.750  0.5100E+01  0.4838E+02
  10.760  0.4818E+01  0.4843E+02
  10.770  0.4533E+01  0.4847E+02
  10.780  0.4267E+01  0.4852E+02
  10.790  0.4134E+01  0.4856E+02
  10.800  0.4072E+01  0.4860E+02
  10.810  0.4107E+01  0.4864E+02
  10.820  0.4074E+01  0.4868E+02
  10.830  0.4022E+01  0.4872E+02
  10.840  0.4021E+01  0.4876E+02
  10.850  0.4013E+01  0.4880E+02
  10.860  0.3972E+01  0.4884E+02
  10.870  0.3975E+01  0.4888E+02
  10.880  0.4018E+01  0.4892E+02
  10.890  0.4106E+01  0.4896E+02
  10.900  0.4184E+01  0.4900E+02
  10.910  0.4233E+01  0.4905E+02
  10.920  0.4473E+01  0.4909E+02
  10.930  0.4391E+01  0.4913E+02
  10.940  0.4271E+01  0.4918E+02
  10.950  0.4201E+01  0.4922E+02
  10.960  0.4108E+01  0.4926E+02
  10.970  0.4036E+01  0.4930E+02
  10.980  0.3952E+01  0.4934E+02
  10.990  0.3838E+01  0.4938E+02
  11.000  0.3800E+01  0.4942E+02
  11.010  0.3744E+01  0.4946E+02
  11.020  0.3693E+01  0.4949E+02
  11.030  0.3602E+01  0.4953E+02
  11.040  0.3555E+01  0.4957E+02
  11.050  0.3546E+01  0.4960E+02
  11.060  0.3518E+01  0.4964E+02
  11.070  0.3563E+01  0.4967E+02
  11.080  0.3790E+01  0.4971E+02
  11.090  0.4419E+01  0.4975E+02
  11.100  0.4997E+01  0.4980E+02
  11.110  0.4722E+01  0.4985E+02
  11.120  0.4713E+01  0.4989E+02
  11.130  0.4690E+01  0.4994E+02
  11.140  0.4583E+01  0.4999E+02
  11.150  0.4560E+01  0.5003E+02
  11.160  0.4558E+01  0.5008E+02
  11.170  0.4570E+01  0.5012E+02
  11.180  0.4531E+01  0.5017E+02
  11.190  0.4526E+01  0.5021E+02
  11.200  0.4576E+01  0.5026E+02
  11.210  0.4662E+01  0.5031E+02
  11.220  0.4954E+01  0.5035E+02
  11.230  0.5245E+01  0.5040E+02
  11.240  0.5518E+01  0.5046E+02
  11.250  0.5432E+01  0.5051E+02
  11.260  0.5252E+01  0.5057E+02
  11.270  0.5151E+01  0.5062E+02
  11.280  0.5163E+01  0.5067E+02
  11.290  0.5285E+01  0.5072E+02
  11.300  0.5424E+01  0.5078E+02
  11.310  0.5449E+01  0.5083E+02
  11.320  0.5440E+01  0.5088E+02
  11.330  0.5560E+01  0.5094E+02
  11.340  0.5615E+01  0.5100E+02
  11.350  0.5753E+01  0.5105E+02
  11.360  0.5889E+01  0.5111E+02
  11.370  0.6115E+01  0.5117E+02
  11.380  0.6108E+01  0.5123E+02
  11.390  0.5948E+01  0.5129E+02
  11.400  0.5883E+01  0.5135E+02
  11.410  0.5978E+01  0.5141E+02
  11.420  0.6558E+01  0.5147E+02
  11.430  0.6732E+01  0.5154E+02
  11.440  0.6785E+01  0.5161E+02
  11.450  0.6551E+01  0.5168E+02
  11.460  0.6248E+01  0.5174E+02
  11.470  0.6051E+01  0.5180E+02
  11.480  0.6005E+01  0.5186E+02
  11.490  0.5864E+01  0.5192E+02
  11.500  0.5668E+01  0.5198E+02
  11.510  0.5561E+01  0.5203E+02
  11.520  0.5503E+01  0.5209E+02
  11.530  0.5530E+01  0.5214E+02
  11.540  0.5258E+01  0.5220E+02
  11.550  0.4939E+01  0.5225E+02
  11.560  0.4811E+01  0.5230E+02
  11.570  0.4788E+01  0.5235E+02
  11.580  0.4755E+01  0.5239E+02
  11.590  0.4677E+01  0.5244E+02
  11.600  0.4600E+01  0.5249E+02
  11.610  0.4609E+01  0.5253E+02
  11.620  0.4742E+01  0.5258E+02
  11.630  0.4841E+01  0.5263E+02
  11.640  0.5089E+01  0.5268E+02
  11.650  0.5687E+01  0.5273E+02
  11.660  0.5968E+01  0.5279E+02
  11.670  0.6042E+01  0.5285E+02
  11.680  0.6034E+01  0.5291E+02
  11.690  0.6162E+01  0.5297E+02
  11.700  0.5892E+01  0.5303E+02
  11.710  0.5680E+01  0.5309E+02
  11.720  0.5587E+01  0.5315E+02
  11.730  0.5620E+01  0.5320E+02
  11.740  0.5633E+01  0.5326E+02
  11.750  0.5759E+01  0.5332E+02
  11.760  0.5891E+01  0.5338E+02
  11.770  0.6145E+01  0.5344E+02
  11.780  0.6341E+01  0.5350E+02
  11.790  0.6386E+01  0.5356E+02
  11.800  0.6267E+01  0.5363E+02
  11.810  0.6085E+01  0.5369E+02
  11.820  0.5937E+01  0.5375E+02
  11.830  0.5898E+01  0.5381E+02
  11.840  0.5627E+01  0.5387E+02
  11.850  0.5421E+01  0.5392E+02
  11.860  0.4965E+01  0.5397E+02
  11.870  0.4301E+01  0.5402E+02
  11.880  0.4213E+01  0.5406E+02
  11.890  0.4203E+01  0.5410E+02
  11.900  0.4012E+01  0.5414E+02
  11.910  0.3982E+01  0.5418E+02
  11.920  0.3984E+01  0.5422E+02
  11.930  0.3793E+01  0.5426E+02
  11.940  0.3491E+01  0.5430E+02
  11.950  0.3663E+01  0.5434E+02
  11.960  0.3306E+01  0.5437E+02
  11.970  0.3257E+01  0.5440E+02
  11.980  0.3093E+01  0.5443E+02
  11.990  0.3096E+01  0.5447E+02
  12.000  0.3196E+01  0.5450E+02
  12.010  0.3334E+01  0.5453E+02
  12.020  0.3409E+01  0.5456E+02
  12.030  0.3642E+01  0.5460E+02
  12.040  0.3826E+01  0.5463E+02
  12.050  0.4254E+01  0.5468E+02
  12.060  0.4921E+01  0.5472E+02
  12.070  0.8102E+01  0.5478E+02
  12.080  0.8190E+01  0.5487E+02
  12.090  0.7528E+01  0.5495E+02
  12.100  0.7032E+01  0.5502E+02
  12.110  0.6128E+01  0.5508E+02
  12.120  0.5401E+01  0.5514E+02
  12.130  0.4829E+01  0.5519E+02
  12.140  0.4600E+01  0.5524E+02
  12.150  0.4459E+01  0.5528E+02
  12.160  0.4436E+01  0.5533E+02
  12.170  0.4547E+01  0.5537E+02
  12.180  0.4430E+01  0.5542E+02
  12.190  0.4229E+01  0.5546E+02
  12.200  0.4145E+01  0.5550E+02
  12.210  0.3947E+01  0.5555E+02
  12.220  0.3679E+01  0.5558E+02
  12.230  0.3448E+01  0.5562E+02
  12.240  0.3575E+01  0.5565E+02
  12.250  0.4477E+01  0.5569E+02
  12.260  0.5458E+01  0.5574E+02
  12.270  0.5958E+01  0.5580E+02
  12.280  0.6449E+01  0.5586E+02
  12.290  0.7914E+01  0.5593E+02
  12.300  0.7792E+01  0.5601E+02
  12.310  0.7833E+01  0.5609E+02
  12.320  0.8813E+01  0.5617E+02
  12.330  0.8736E+01  0.5625E+02
  12.340  0.8988E+01  0.5634E+02
  12.350  0.6282E+01  0.5642E+02
  12.360  0.5589E+01  0.5648E+02
  12.370  0.5321E+01  0.5653E+02
  12.380  0.4997E+01  0.5659E+02
  12.390  0.4655E+01  0.5663E+02
  12.400  0.4438E+01  0.5668E+02
  12.410  0.4032E+01  0.5672E+02
  12.420  0.3924E+01  0.5676E+02
  12.430  0.3795E+01  0.5680E+02
  12.440  0.3679E+01  0.5684E+02
  12.450  0.3630E+01  0.5687E+02
  12.460  0.3617E+01  0.5691E+02
  12.470  0.3623E+01  0.5695E+02
  12.480  0.3678E+01  0.5698E+02
  12.490  0.3777E+01  0.5702E+02
  12.500  0.3616E+01  0.5706E+02
  12.510  0.3542E+01  0.5709E+02
  12.520  0.3510E+01  0.5713E+02
  12.530  0.3495E+01  0.5716E+02
  12.540  0.3487E+01  0.5720E+02
  12.550  0.3535E+01  0.5723E+02
  12.560  0.3673E+01  0.5727E+02
  12.570  0.3881E+01  0.5731E+02
  12.580  0.3986E+01  0.5735E+02
  12.590  0.4042E+01  0.5739E+02
  12.600  0.3708E+01  0.5743E+02
  12.610  0.3446E+01  0.5746E+02
  12.620  0.3333E+01  0.5750E+02
  12.630  0.3326E+01  0.5753E+02
  12.640  0.3294E+01  0.5756E+02
  12.650  0.3331E+01  0.5760E+02
  12.660  0.3311E+01  0.5763E+02
  12.670  0.3361E+01  0.5766E+02
  12.680  0.3408E+01  0.5770E+02
  12.690  0.3356E+01  0.5773E+02
  12.700  0.3275E+01  0.5776E+02
  12.710  0.3206E+01  0.5780E+02
  12.720  0.3149E+01  0.5783E+02
  12.730  0.3105E+01  0.5786E+02
  12.740  0.3118E+01  0.5789E+02
  12.750  0.3156E+01  0.5792E+02
  12.760  0.3221E+01  0.5795E+02
  12.770  0.3299E+01  0.5799E+02
  12.780  0.3316E+01  0.5802E+02
  12.790  0.3344E+01  0.5805E+02
  12.800  0.3432E+01  0.5809E+02
  12.810  0.3555E+01  0.5812E+02
  12.820  0.3757E+01  0.5816E+02
  12.830  0.3972E+01  0.5820E+02
  12.840  0.4227E+01  0.5824E+02
  12.850  0.4531E+01  0.5828E+02
  12.860  0.4768E+01  0.5833E+02
  12.870  0.4733E+01  0.5838E+02
  12.880  0.4685E+01  0.5842E+02
  12.890  0.4600E+01  0.5847E+02
  12.900  0.4435E+01  0.5852E+02
  12.910  0.4281E+01  0.5856E+02
  12.920  0.3932E+01  0.5860E+02
  12.930  0.3719E+01  0.5864E+02
  12.940  0.3408E+01  0.5867E+02
  12.950  0.3129E+01  0.5871E+02
  12.960  0.2983E+01  0.5874E+02
  12.970  0.2947E+01  0.5877E+02
  12.980  0.3009E+01  0.5880E+02
  12.990  0.3054E+01  0.5883E+02
  13.000  0.3036E+01  0.5886E+02
  13.010  0.2786E+01  0.5889E+02
  13.020  0.2562E+01  0.5891E+02
  13.030  0.2430E+01  0.5894E+02
  13.040  0.2414E+01  0.5896E+02
  13.050  0.2457E+01  0.5899E+02
  13.060  0.2505E+01  0.5901E+02
  13.070  0.2560E+01  0.5904E+02
  13.080  0.2643E+01  0.5906E+02
  13.090  0.2743E+01  0.5909E+02
  13.100  0.2860E+01  0.5912E+02
  13.110  0.3102E+01  0.5915E+02
  13.120  0.3527E+01  0.5918E+02
  13.130  0.3639E+01  0.5922E+02
  13.140  0.3792E+01  0.5925E+02
  13.150  0.3533E+01  0.5929E+02
  13.160  0.3058E+01  0.5932E+02
  13.170  0.3165E+01  0.5936E+02
  13.180  0.3166E+01  0.5939E+02
  13.190  0.3036E+01  0.5942E+02
  13.200  0.3002E+01  0.5945E+02
  13.210  0.2954E+01  0.5948E+02
  13.220  0.2867E+01  0.5951E+02
  13.230  0.2785E+01  0.5954E+02
  13.240  0.2807E+01  0.5956E+02
  13.250  0.2717E+01  0.5959E+02
  13.260  0.2390E+01  0.5962E+02
  13.270  0.2637E+01  0.5964E+02
  13.280  0.2166E+01  0.5966E+02
  13.290  0.1959E+01  0.5968E+02
  13.300  0.1816E+01  0.5970E+02
  13.310  0.1673E+01  0.5972E+02
  13.320  0.1586E+01  0.5974E+02
  13.330  0.1592E+01  0.5975E+02
  13.340  0.1749E+01  0.5977E+02
  13.350  0.1989E+01  0.5979E+02
  13.360  0.2146E+01  0.5981E+02
  13.370  0.2303E+01  0.5983E+02
  13.380  0.2356E+01  0.5985E+02
  13.390  0.2821E+01  0.5988E+02
  13.400  0.1991E+01  0.5990E+02
  13.410  0.1878E+01  0.5992E+02
  13.420  0.1830E+01  0.5994E+02
  13.430  0.1785E+01  0.5996E+02
  13.440  0.1779E+01  0.5998E+02
  13.450  0.1764E+01  0.5999E+02
  13.460  0.1770E+01  0.6001E+02
  13.470  0.1784E+01  0.6003E+02
  13.480  0.1831E+01  0.6005E+02
  13.490  0.1892E+01  0.6007E+02
  13.500  0.2030E+01  0.6009E+02
  13.510  0.2143E+01  0.6011E+02
  13.520  0.2243E+01  0.6013E+02
  13.530  0.2305E+01  0.6015E+02
  13.540  0.2241E+01  0.6017E+02
  13.550  0.2271E+01  0.6020E+02
  13.560  0.2204E+01  0.6022E+02
  13.570  0.2137E+01  0.6024E+02
  13.580  0.2061E+01  0.6026E+02
  13.590  0.2043E+01  0.6028E+02
  13.600  0.2048E+01  0.6030E+02
  13.610  0.2045E+01  0.6032E+02
  13.620  0.2115E+01  0.6034E+02
  13.630  0.2202E+01  0.6037E+02
  13.640  0.2299E+01  0.6039E+02
  13.650  0.2454E+01  0.6041E+02
  13.660  0.2607E+01  0.6044E+02
  13.670  0.2772E+01  0.6046E+02
  13.680  0.2960E+01  0.6049E+02
  13.690  0.3104E+01  0.6052E+02
  13.700  0.3244E+01  0.6056E+02
  13.710  0.3425E+01  0.6059E+02
  13.720  0.3636E+01  0.6062E+02
  13.730  0.3961E+01  0.6066E+02
  13.740  0.4227E+01  0.6070E+02
  13.750  0.4554E+01  0.6075E+02
  13.760  0.4880E+01  0.6079E+02
  13.770  0.4958E+01  0.6084E+02
  13.780  0.5040E+01  0.6089E+02
  13.790  0.5066E+01  0.6094E+02
  13.800  0.5067E+01  0.6099E+02
  13.810  0.5016E+01  0.6105E+02
  13.820  0.5034E+01  0.6110E+02
  13.830  0.5099E+01  0.6115E+02
  13.840  0.5212E+01  0.6120E+02
  13.850  0.5335E+01  0.6125E+02
  13.860  0.5368E+01  0.6130E+02
  13.870  0.5424E+01  0.6136E+02
  13.880  0.5607E+01  0.6141E+02
  13.890  0.5817E+01  0.6147E+02
  13.900  0.5886E+01  0.6153E+02
  13.910  0.6065E+01  0.6159E+02
  13.920  0.6076E+01  0.6165E+02
  13.930  0.6031E+01  0.6171E+02
  13.940  0.5886E+01  0.6177E+02
  13.950  0.5725E+01  0.6183E+02
  13.960  0.5584E+01  0.6189E+02
  13.970  0.5515E+01  0.6194E+02
  13.980  0.5380E+01  0.6200E+02
  13.990  0.5151E+01  0.6205E+02
  14.000  0.4825E+01  0.6210E+02
  14.010  0.4603E+01  0.6214E+02
  14.020  0.4484E+01  0.6219E+02
  14.030  0.4554E+01  0.6224E+02
  14.040  0.4712E+01  0.6228E+02
  14.050  0.4837E+01  0.6233E+02
  14.060  0.4990E+01  0.6238E+02
  14.070  0.5139E+01  0.6243E+02
  14.080  0.5194E+01  0.6248E+02
  14.090  0.5060E+01  0.6253E+02
  14.100  0.5044E+01  0.6258E+02
  14.110  0.5151E+01  0.6263E+02
  14.120  0.4583E+01  0.6268E+02
  14.130  0.4383E+01  0.6273E+02
  14.140  0.4945E+01  0.6277E+02
  14.150  0.4866E+01  0.6282E+02
  14.160  0.4855E+01  0.6287E+02
  14.170  0.4961E+01  0.6292E+02
  14.180  0.5114E+01  0.6297E+02
  14.190  0.5138E+01  0.6302E+02
  14.200  0.5177E+01  0.6307E+02
  14.210  0.5268E+01  0.6312E+02
  14.220  0.5321E+01  0.6318E+02
  14.230  0.5333E+01  0.6323E+02
  14.240  0.5247E+01  0.6328E+02
  14.250  0.5186E+01  0.6334E+02
  14.260  0.5321E+01  0.6339E+02
  14.270  0.5416E+01  0.6344E+02
  14.280  0.4958E+01  0.6350E+02
  14.290  0.4662E+01  0.6354E+02
  14.300  0.4486E+01  0.6359E+02
  14.310  0.4348E+01  0.6363E+02
  14.320  0.4294E+01  0.6368E+02
  14.330  0.4288E+01  0.6372E+02
  14.340  0.4312E+01  0.6376E+02
  14.350  0.4447E+01  0.6381E+02
  14.360  0.4658E+01  0.6385E+02
  14.370  0.5062E+01  0.6390E+02
  14.380  0.5439E+01  0.6395E+02
  14.390  0.5887E+01  0.6401E+02
  14.400  0.6157E+01  0.6407E+02
  14.410  0.6255E+01  0.6413E+02
  14.420  0.6356E+01  0.6419E+02
  14.430  0.6323E+01  0.6426E+02
  14.440  0.6158E+01  0.6432E+02
  14.450  0.5782E+01  0.6438E+02
  14.460  0.5612E+01  0.6444E+02
  14.470  0.5471E+01  0.6449E+02
  14.480  0.5332E+01  0.6455E+02
  14.490  0.5254E+01  0.6460E+02
  14.500  0.5220E+01  0.6465E+02
  14.510  0.5212E+01  0.6470E+02
  14.520  0.5222E+01  0.6476E+02
  14.530  0.5262E+01  0.6481E+02
  14.540  0.5350E+01  0.6486E+02
  14.550  0.5455E+01  0.6492E+02
  14.560  0.5596E+01  0.6497E+02
  14.570  0.5686E+01  0.6503E+02
  14.580  0.5771E+01  0.6508E+02
  14.590  0.5830E+01  0.6514E+02
  14.600  0.5872E+01  0.6520E+02
  14.610  0.5943E+01  0.6526E+02
  14.620  0.5979E+01  0.6532E+02
  14.630  0.5969E+01  0.6538E+02
  14.640  0.5968E+01  0.6544E+02
  14.650  0.5900E+01  0.6550E+02
  14.660  0.5498E+01  0.6556E+02
  14.670  0.5068E+01  0.6561E+02
  14.680  0.4798E+01  0.6566E+02
  14.690  0.4536E+01  0.6571E+02
  14.700  0.4239E+01  0.6575E+02
  14.710  0.4067E+01  0.6579E+02
  14.720  0.3991E+01  0.6583E+02
  14.730  0.3960E+01  0.6587E+02
  14.740  0.3927E+01  0.6591E+02
  14.750  0.3899E+01  0.6595E+02
  14.760  0.3846E+01  0.6599E+02
  14.770  0.3799E+01  0.6603E+02
  14.780  0.3759E+01  0.6606E+02
  14.790  0.3743E+01  0.6610E+02
  14.800  0.3760E+01  0.6614E+02
  14.810  0.3797E+01  0.6618E+02
  14.820  0.3836E+01  0.6621E+02
  14.830  0.3833E+01  0.6625E+02
  14.840  0.3911E+01  0.6629E+02
  14.850  0.4021E+01  0.6633E+02
  14.860  0.3742E+01  0.6637E+02
  14.870  0.3509E+01  0.6641E+02
  14.880  0.3281E+01  0.6644E+02
  14.890  0.3196E+01  0.6647E+02
  14.900  0.3139E+01  0.6650E+02
  14.910  0.3119E+01  0.6653E+02
  14.920  0.3147E+01  0.6657E+02
  14.930  0.3202E+01  0.6660E+02
  14.940  0.3444E+01  0.6663E+02
  14.950  0.3809E+01  0.6667E+02
  14.960  0.4238E+01  0.6671E+02
  14.970  0.4708E+01  0.6675E+02
  14.980  0.5218E+01  0.6680E+02
  14.990  0.5886E+01  0.6686E+02
  15.000  0.6527E+01  0.6692E+02
