#  E (eV)   dos(E)     Int dos(E) EFermi =    5.449 eV
 -15.000  0.0000E+00  0.0000E+00
 -14.990  0.0000E+00  0.0000E+00
 -14.980  0.0000E+00  0.0000E+00
 -14.970  0.0000E+00  0.0000E+00
 -14.960  0.0000E+00  0.0000E+00
 -14.950  0.0000E+00  0.0000E+00
 -14.940  0.0000E+00  0.0000E+00
 -14.930  0.0000E+00  0.0000E+00
 -14.920  0.0000E+00  0.0000E+00
 -14.910  0.0000E+00  0.0000E+00
 -14.900  0.0000E+00  0.0000E+00
 -14.890  0.0000E+00  0.0000E+00
 -14.880  0.0000E+00  0.0000E+00
 -14.870  0.0000E+00  0.0000E+00
 -14.860  0.0000E+00  0.0000E+00
 -14.850  0.0000E+00  0.0000E+00
 -14.840  0.0000E+00  0.0000E+00
 -14.830  0.0000E+00  0.0000E+00
 -14.820  0.0000E+00  0.0000E+00
 -14.810  0.0000E+00  0.0000E+00
 -14.800  0.0000E+00  0.0000E+00
 -14.790  0.0000E+00  0.0000E+00
 -14.780  0.0000E+00  0.0000E+00
 -14.770  0.0000E+00  0.0000E+00
 -14.760  0.0000E+00  0.0000E+00
 -14.750  0.0000E+00  0.0000E+00
 -14.740  0.0000E+00  0.0000E+00
 -14.730  0.0000E+00  0.0000E+00
 -14.720  0.0000E+00  0.0000E+00
 -14.710  0.0000E+00  0.0000E+00
 -14.700  0.0000E+00  0.0000E+00
 -14.690  0.0000E+00  0.0000E+00
 -14.680  0.0000E+00  0.0000E+00
 -14.670  0.0000E+00  0.0000E+00
 -14.660  0.0000E+00  0.0000E+00
 -14.650  0.0000E+00  0.0000E+00
 -14.640  0.0000E+00  0.0000E+00
 -14.630  0.0000E+00  0.0000E+00
 -14.620  0.0000E+00  0.0000E+00
 -14.610  0.0000E+00  0.0000E+00
 -14.600  0.0000E+00  0.0000E+00
 -14.590  0.0000E+00  0.0000E+00
 -14.580  0.0000E+00  0.0000E+00
 -14.570  0.0000E+00  0.0000E+00
 -14.560  0.0000E+00  0.0000E+00
 -14.550  0.0000E+00  0.0000E+00
 -14.540  0.0000E+00  0.0000E+00
 -14.530  0.0000E+00  0.0000E+00
 -14.520  0.0000E+00  0.0000E+00
 -14.510  0.0000E+00  0.0000E+00
 -14.500  0.0000E+00  0.0000E+00
 -14.490  0.0000E+00  0.0000E+00
 -14.480  0.0000E+00  0.0000E+00
 -14.470  0.0000E+00  0.0000E+00
 -14.460  0.0000E+00  0.0000E+00
 -14.450  0.0000E+00  0.0000E+00
 -14.440  0.0000E+00  0.0000E+00
 -14.430  0.0000E+00  0.0000E+00
 -14.420  0.0000E+00  0.0000E+00
 -14.410  0.0000E+00  0.0000E+00
 -14.400  0.0000E+00  0.0000E+00
 -14.390  0.0000E+00  0.0000E+00
 -14.380  0.0000E+00  0.0000E+00
 -14.370  0.0000E+00  0.0000E+00
 -14.360  0.0000E+00  0.0000E+00
 -14.350  0.0000E+00  0.0000E+00
 -14.340  0.0000E+00  0.0000E+00
 -14.330  0.0000E+00  0.0000E+00
 -14.320  0.0000E+00  0.0000E+00
 -14.310  0.0000E+00  0.0000E+00
 -14.300  0.0000E+00  0.0000E+00
 -14.290  0.0000E+00  0.0000E+00
 -14.280  0.0000E+00  0.0000E+00
 -14.270  0.0000E+00  0.0000E+00
 -14.260  0.0000E+00  0.0000E+00
 -14.250  0.0000E+00  0.0000E+00
 -14.240  0.0000E+00  0.0000E+00
 -14.230  0.0000E+00  0.0000E+00
 -14.220  0.0000E+00  0.0000E+00
 -14.210  0.0000E+00  0.0000E+00
 -14.200  0.0000E+00  0.0000E+00
 -14.190  0.0000E+00  0.0000E+00
 -14.180  0.0000E+00  0.0000E+00
 -14.170  0.0000E+00  0.0000E+00
 -14.160  0.0000E+00  0.0000E+00
 -14.150  0.0000E+00  0.0000E+00
 -14.140  0.0000E+00  0.0000E+00
 -14.130  0.0000E+00  0.0000E+00
 -14.120  0.0000E+00  0.0000E+00
 -14.110  0.0000E+00  0.0000E+00
 -14.100  0.0000E+00  0.0000E+00
 -14.090  0.0000E+00  0.0000E+00
 -14.080  0.0000E+00  0.0000E+00
 -14.070  0.0000E+00  0.0000E+00
 -14.060  0.0000E+00  0.0000E+00
 -14.050  0.0000E+00  0.0000E+00
 -14.040  0.0000E+00  0.0000E+00
 -14.030  0.0000E+00  0.0000E+00
 -14.020  0.0000E+00  0.0000E+00
 -14.010  0.0000E+00  0.0000E+00
 -14.000  0.0000E+00  0.0000E+00
 -13.990  0.0000E+00  0.0000E+00
 -13.980  0.0000E+00  0.0000E+00
 -13.970  0.0000E+00  0.0000E+00
 -13.960  0.0000E+00  0.0000E+00
 -13.950  0.0000E+00  0.0000E+00
 -13.940  0.0000E+00  0.0000E+00
 -13.930  0.0000E+00  0.0000E+00
 -13.920  0.0000E+00  0.0000E+00
 -13.910  0.0000E+00  0.0000E+00
 -13.900  0.0000E+00  0.0000E+00
 -13.890  0.0000E+00  0.0000E+00
 -13.880  0.0000E+00  0.0000E+00
 -13.870  0.0000E+00  0.0000E+00
 -13.860  0.0000E+00  0.0000E+00
 -13.850  0.0000E+00  0.0000E+00
 -13.840  0.0000E+00  0.0000E+00
 -13.830  0.0000E+00  0.0000E+00
 -13.820  0.0000E+00  0.0000E+00
 -13.810  0.0000E+00  0.0000E+00
 -13.800  0.0000E+00  0.0000E+00
 -13.790  0.0000E+00  0.0000E+00
 -13.780  0.0000E+00  0.0000E+00
 -13.770  0.0000E+00  0.0000E+00
 -13.760  0.0000E+00  0.0000E+00
 -13.750  0.0000E+00  0.0000E+00
 -13.740  0.0000E+00  0.0000E+00
 -13.730  0.0000E+00  0.0000E+00
 -13.720  0.0000E+00  0.0000E+00
 -13.710  0.0000E+00  0.0000E+00
 -13.700  0.0000E+00  0.0000E+00
 -13.690  0.0000E+00  0.0000E+00
 -13.680  0.0000E+00  0.0000E+00
 -13.670  0.0000E+00  0.0000E+00
 -13.660  0.0000E+00  0.0000E+00
 -13.650  0.0000E+00  0.0000E+00
 -13.640  0.0000E+00  0.0000E+00
 -13.630  0.0000E+00  0.0000E+00
 -13.620  0.0000E+00  0.0000E+00
 -13.610  0.0000E+00  0.0000E+00
 -13.600  0.0000E+00  0.0000E+00
 -13.590  0.0000E+00  0.0000E+00
 -13.580  0.0000E+00  0.0000E+00
 -13.570  0.0000E+00  0.0000E+00
 -13.560  0.0000E+00  0.0000E+00
 -13.550  0.0000E+00  0.0000E+00
 -13.540  0.0000E+00  0.0000E+00
 -13.530  0.0000E+00  0.0000E+00
 -13.520  0.0000E+00  0.0000E+00
 -13.510  0.0000E+00  0.0000E+00
 -13.500  0.0000E+00  0.0000E+00
 -13.490  0.0000E+00  0.0000E+00
 -13.480  0.0000E+00  0.0000E+00
 -13.470  0.0000E+00  0.0000E+00
 -13.460  0.0000E+00  0.0000E+00
 -13.450  0.0000E+00  0.0000E+00
 -13.440  0.0000E+00  0.0000E+00
 -13.430  0.0000E+00  0.0000E+00
 -13.420  0.0000E+00  0.0000E+00
 -13.410  0.0000E+00  0.0000E+00
 -13.400  0.0000E+00  0.0000E+00
 -13.390  0.0000E+00  0.0000E+00
 -13.380  0.0000E+00  0.0000E+00
 -13.370  0.0000E+00  0.0000E+00
 -13.360  0.0000E+00  0.0000E+00
 -13.350  0.0000E+00  0.0000E+00
 -13.340  0.0000E+00  0.0000E+00
 -13.330  0.0000E+00  0.0000E+00
 -13.320  0.0000E+00  0.0000E+00
 -13.310  0.0000E+00  0.0000E+00
 -13.300  0.0000E+00  0.0000E+00
 -13.290  0.0000E+00  0.0000E+00
 -13.280  0.0000E+00  0.0000E+00
 -13.270  0.0000E+00  0.0000E+00
 -13.260  0.0000E+00  0.0000E+00
 -13.250  0.0000E+00  0.0000E+00
 -13.240  0.0000E+00  0.0000E+00
 -13.230  0.0000E+00  0.0000E+00
 -13.220  0.0000E+00  0.0000E+00
 -13.210  0.0000E+00  0.0000E+00
 -13.200  0.0000E+00  0.0000E+00
 -13.190  0.0000E+00  0.0000E+00
 -13.180  0.0000E+00  0.0000E+00
 -13.170  0.0000E+00  0.0000E+00
 -13.160  0.0000E+00  0.0000E+00
 -13.150  0.0000E+00  0.0000E+00
 -13.140  0.0000E+00  0.0000E+00
 -13.130  0.0000E+00  0.0000E+00
 -13.120  0.0000E+00  0.0000E+00
 -13.110  0.0000E+00  0.0000E+00
 -13.100  0.0000E+00  0.0000E+00
 -13.090  0.0000E+00  0.0000E+00
 -13.080  0.0000E+00  0.0000E+00
 -13.070  0.0000E+00  0.0000E+00
 -13.060  0.0000E+00  0.0000E+00
 -13.050  0.0000E+00  0.0000E+00
 -13.040  0.0000E+00  0.0000E+00
 -13.030  0.0000E+00  0.0000E+00
 -13.020  0.0000E+00  0.0000E+00
 -13.010  0.0000E+00  0.0000E+00
 -13.000  0.0000E+00  0.0000E+00
 -12.990  0.0000E+00  0.0000E+00
 -12.980  0.0000E+00  0.0000E+00
 -12.970  0.0000E+00  0.0000E+00
 -12.960  0.0000E+00  0.0000E+00
 -12.950  0.0000E+00  0.0000E+00
 -12.940  0.0000E+00  0.0000E+00
 -12.930  0.0000E+00  0.0000E+00
 -12.920  0.0000E+00  0.0000E+00
 -12.910  0.0000E+00  0.0000E+00
 -12.900  0.0000E+00  0.0000E+00
 -12.890  0.0000E+00  0.0000E+00
 -12.880  0.0000E+00  0.0000E+00
 -12.870  0.0000E+00  0.0000E+00
 -12.860  0.0000E+00  0.0000E+00
 -12.850  0.0000E+00  0.0000E+00
 -12.840  0.0000E+00  0.0000E+00
 -12.830  0.0000E+00  0.0000E+00
 -12.820  0.0000E+00  0.0000E+00
 -12.810  0.0000E+00  0.0000E+00
 -12.800  0.0000E+00  0.0000E+00
 -12.790  0.0000E+00  0.0000E+00
 -12.780  0.0000E+00  0.0000E+00
 -12.770  0.0000E+00  0.0000E+00
 -12.760  0.0000E+00  0.0000E+00
 -12.750  0.0000E+00  0.0000E+00
 -12.740  0.0000E+00  0.0000E+00
 -12.730  0.0000E+00  0.0000E+00
 -12.720  0.0000E+00  0.0000E+00
 -12.710  0.0000E+00  0.0000E+00
 -12.700  0.0000E+00  0.0000E+00
 -12.690  0.0000E+00  0.0000E+00
 -12.680  0.0000E+00  0.0000E+00
 -12.670  0.0000E+00  0.0000E+00
 -12.660  0.0000E+00  0.0000E+00
 -12.650  0.0000E+00  0.0000E+00
 -12.640  0.0000E+00  0.0000E+00
 -12.630  0.0000E+00  0.0000E+00
 -12.620  0.0000E+00  0.0000E+00
 -12.610  0.0000E+00  0.0000E+00
 -12.600  0.0000E+00  0.0000E+00
 -12.590  0.0000E+00  0.0000E+00
 -12.580  0.0000E+00  0.0000E+00
 -12.570  0.0000E+00  0.0000E+00
 -12.560  0.0000E+00  0.0000E+00
 -12.550  0.0000E+00  0.0000E+00
 -12.540  0.0000E+00  0.0000E+00
 -12.530  0.0000E+00  0.0000E+00
 -12.520  0.0000E+00  0.0000E+00
 -12.510  0.0000E+00  0.0000E+00
 -12.500  0.0000E+00  0.0000E+00
 -12.490  0.0000E+00  0.0000E+00
 -12.480  0.0000E+00  0.0000E+00
 -12.470  0.0000E+00  0.0000E+00
 -12.460  0.0000E+00  0.0000E+00
 -12.450  0.0000E+00  0.0000E+00
 -12.440  0.0000E+00  0.0000E+00
 -12.430  0.0000E+00  0.0000E+00
 -12.420  0.0000E+00  0.0000E+00
 -12.410  0.0000E+00  0.0000E+00
 -12.400  0.0000E+00  0.0000E+00
 -12.390  0.0000E+00  0.0000E+00
 -12.380  0.0000E+00  0.0000E+00
 -12.370  0.0000E+00  0.0000E+00
 -12.360  0.0000E+00  0.0000E+00
 -12.350  0.0000E+00  0.0000E+00
 -12.340  0.0000E+00  0.0000E+00
 -12.330  0.0000E+00  0.0000E+00
 -12.320  0.0000E+00  0.0000E+00
 -12.310  0.0000E+00  0.0000E+00
 -12.300  0.0000E+00  0.0000E+00
 -12.290  0.0000E+00  0.0000E+00
 -12.280  0.0000E+00  0.0000E+00
 -12.270  0.0000E+00  0.0000E+00
 -12.260  0.0000E+00  0.0000E+00
 -12.250  0.0000E+00  0.0000E+00
 -12.240  0.0000E+00  0.0000E+00
 -12.230  0.0000E+00  0.0000E+00
 -12.220  0.0000E+00  0.0000E+00
 -12.210  0.0000E+00  0.0000E+00
 -12.200  0.0000E+00  0.0000E+00
 -12.190  0.0000E+00  0.0000E+00
 -12.180  0.0000E+00  0.0000E+00
 -12.170  0.0000E+00  0.0000E+00
 -12.160  0.0000E+00  0.0000E+00
 -12.150  0.0000E+00  0.0000E+00
 -12.140  0.0000E+00  0.0000E+00
 -12.130  0.0000E+00  0.0000E+00
 -12.120  0.0000E+00  0.0000E+00
 -12.110  0.0000E+00  0.0000E+00
 -12.100  0.0000E+00  0.0000E+00
 -12.090  0.0000E+00  0.0000E+00
 -12.080  0.0000E+00  0.0000E+00
 -12.070  0.0000E+00  0.0000E+00
 -12.060  0.0000E+00  0.0000E+00
 -12.050  0.0000E+00  0.0000E+00
 -12.040  0.0000E+00  0.0000E+00
 -12.030  0.0000E+00  0.0000E+00
 -12.020  0.0000E+00  0.0000E+00
 -12.010  0.0000E+00  0.0000E+00
 -12.000  0.0000E+00  0.0000E+00
 -11.990  0.0000E+00  0.0000E+00
 -11.980  0.0000E+00  0.0000E+00
 -11.970  0.0000E+00  0.0000E+00
 -11.960  0.0000E+00  0.0000E+00
 -11.950  0.0000E+00  0.0000E+00
 -11.940  0.0000E+00  0.0000E+00
 -11.930  0.0000E+00  0.0000E+00
 -11.920  0.0000E+00  0.0000E+00
 -11.910  0.0000E+00  0.0000E+00
 -11.900  0.0000E+00  0.0000E+00
 -11.890  0.0000E+00  0.0000E+00
 -11.880  0.0000E+00  0.0000E+00
 -11.870  0.0000E+00  0.0000E+00
 -11.860  0.0000E+00  0.0000E+00
 -11.850  0.0000E+00  0.0000E+00
 -11.840  0.0000E+00  0.0000E+00
 -11.830  0.0000E+00  0.0000E+00
 -11.820  0.0000E+00  0.0000E+00
 -11.810  0.0000E+00  0.0000E+00
 -11.800  0.0000E+00  0.0000E+00
 -11.790  0.0000E+00  0.0000E+00
 -11.780  0.0000E+00  0.0000E+00
 -11.770  0.0000E+00  0.0000E+00
 -11.760  0.0000E+00  0.0000E+00
 -11.750  0.0000E+00  0.0000E+00
 -11.740  0.0000E+00  0.0000E+00
 -11.730  0.0000E+00  0.0000E+00
 -11.720  0.0000E+00  0.0000E+00
 -11.710  0.0000E+00  0.0000E+00
 -11.700  0.0000E+00  0.0000E+00
 -11.690  0.0000E+00  0.0000E+00
 -11.680  0.0000E+00  0.0000E+00
 -11.670  0.0000E+00  0.0000E+00
 -11.660  0.0000E+00  0.0000E+00
 -11.650  0.0000E+00  0.0000E+00
 -11.640  0.0000E+00  0.0000E+00
 -11.630  0.0000E+00  0.0000E+00
 -11.620  0.0000E+00  0.0000E+00
 -11.610  0.0000E+00  0.0000E+00
 -11.600  0.0000E+00  0.0000E+00
 -11.590  0.0000E+00  0.0000E+00
 -11.580  0.0000E+00  0.0000E+00
 -11.570  0.0000E+00  0.0000E+00
 -11.560  0.0000E+00  0.0000E+00
 -11.550  0.0000E+00  0.0000E+00
 -11.540  0.0000E+00  0.0000E+00
 -11.530  0.0000E+00  0.0000E+00
 -11.520  0.0000E+00  0.0000E+00
 -11.510  0.0000E+00  0.0000E+00
 -11.500  0.0000E+00  0.0000E+00
 -11.490  0.0000E+00  0.0000E+00
 -11.480  0.0000E+00  0.0000E+00
 -11.470  0.0000E+00  0.0000E+00
 -11.460  0.0000E+00  0.0000E+00
 -11.450  0.0000E+00  0.0000E+00
 -11.440  0.0000E+00  0.0000E+00
 -11.430  0.0000E+00  0.0000E+00
 -11.420  0.0000E+00  0.0000E+00
 -11.410  0.0000E+00  0.0000E+00
 -11.400  0.0000E+00  0.0000E+00
 -11.390  0.0000E+00  0.0000E+00
 -11.380  0.0000E+00  0.0000E+00
 -11.370  0.0000E+00  0.0000E+00
 -11.360  0.0000E+00  0.0000E+00
 -11.350  0.0000E+00  0.0000E+00
 -11.340  0.0000E+00  0.0000E+00
 -11.330  0.0000E+00  0.0000E+00
 -11.320  0.0000E+00  0.0000E+00
 -11.310  0.0000E+00  0.0000E+00
 -11.300  0.0000E+00  0.0000E+00
 -11.290  0.0000E+00  0.0000E+00
 -11.280  0.0000E+00  0.0000E+00
 -11.270  0.0000E+00  0.0000E+00
 -11.260  0.0000E+00  0.0000E+00
 -11.250  0.0000E+00  0.0000E+00
 -11.240  0.0000E+00  0.0000E+00
 -11.230  0.0000E+00  0.0000E+00
 -11.220  0.0000E+00  0.0000E+00
 -11.210  0.0000E+00  0.0000E+00
 -11.200  0.0000E+00  0.0000E+00
 -11.190  0.0000E+00  0.0000E+00
 -11.180  0.0000E+00  0.0000E+00
 -11.170  0.0000E+00  0.0000E+00
 -11.160  0.0000E+00  0.0000E+00
 -11.150  0.0000E+00  0.0000E+00
 -11.140  0.0000E+00  0.0000E+00
 -11.130  0.0000E+00  0.0000E+00
 -11.120  0.0000E+00  0.0000E+00
 -11.110  0.0000E+00  0.0000E+00
 -11.100  0.0000E+00  0.0000E+00
 -11.090  0.0000E+00  0.0000E+00
 -11.080  0.0000E+00  0.0000E+00
 -11.070  0.0000E+00  0.0000E+00
 -11.060  0.0000E+00  0.0000E+00
 -11.050  0.0000E+00  0.0000E+00
 -11.040  0.0000E+00  0.0000E+00
 -11.030  0.0000E+00  0.0000E+00
 -11.020  0.0000E+00  0.0000E+00
 -11.010  0.0000E+00  0.0000E+00
 -11.000  0.0000E+00  0.0000E+00
 -10.990  0.0000E+00  0.0000E+00
 -10.980  0.0000E+00  0.0000E+00
 -10.970  0.0000E+00  0.0000E+00
 -10.960  0.0000E+00  0.0000E+00
 -10.950  0.0000E+00  0.0000E+00
 -10.940  0.0000E+00  0.0000E+00
 -10.930  0.0000E+00  0.0000E+00
 -10.920  0.0000E+00  0.0000E+00
 -10.910  0.0000E+00  0.0000E+00
 -10.900  0.0000E+00  0.0000E+00
 -10.890  0.0000E+00  0.0000E+00
 -10.880  0.0000E+00  0.0000E+00
 -10.870  0.0000E+00  0.0000E+00
 -10.860  0.0000E+00  0.0000E+00
 -10.850  0.0000E+00  0.0000E+00
 -10.840  0.0000E+00  0.0000E+00
 -10.830  0.0000E+00  0.0000E+00
 -10.820  0.0000E+00  0.0000E+00
 -10.810  0.0000E+00  0.0000E+00
 -10.800  0.0000E+00  0.0000E+00
 -10.790  0.0000E+00  0.0000E+00
 -10.780  0.0000E+00  0.0000E+00
 -10.770  0.0000E+00  0.0000E+00
 -10.760  0.0000E+00  0.0000E+00
 -10.750  0.0000E+00  0.0000E+00
 -10.740  0.0000E+00  0.0000E+00
 -10.730  0.0000E+00  0.0000E+00
 -10.720  0.0000E+00  0.0000E+00
 -10.710  0.0000E+00  0.0000E+00
 -10.700  0.0000E+00  0.0000E+00
 -10.690  0.0000E+00  0.0000E+00
 -10.680  0.0000E+00  0.0000E+00
 -10.670  0.0000E+00  0.0000E+00
 -10.660  0.0000E+00  0.0000E+00
 -10.650  0.0000E+00  0.0000E+00
 -10.640  0.0000E+00  0.0000E+00
 -10.630  0.0000E+00  0.0000E+00
 -10.620  0.0000E+00  0.0000E+00
 -10.610  0.0000E+00  0.0000E+00
 -10.600  0.0000E+00  0.0000E+00
 -10.590  0.0000E+00  0.0000E+00
 -10.580  0.0000E+00  0.0000E+00
 -10.570  0.0000E+00  0.0000E+00
 -10.560  0.0000E+00  0.0000E+00
 -10.550  0.0000E+00  0.0000E+00
 -10.540  0.0000E+00  0.0000E+00
 -10.530  0.0000E+00  0.0000E+00
 -10.520  0.0000E+00  0.0000E+00
 -10.510  0.0000E+00  0.0000E+00
 -10.500  0.0000E+00  0.0000E+00
 -10.490  0.0000E+00  0.0000E+00
 -10.480  0.0000E+00  0.0000E+00
 -10.470  0.0000E+00  0.0000E+00
 -10.460  0.0000E+00  0.0000E+00
 -10.450  0.0000E+00  0.0000E+00
 -10.440  0.0000E+00  0.0000E+00
 -10.430  0.0000E+00  0.0000E+00
 -10.420  0.0000E+00  0.0000E+00
 -10.410  0.0000E+00  0.0000E+00
 -10.400  0.0000E+00  0.0000E+00
 -10.390  0.0000E+00  0.0000E+00
 -10.380  0.0000E+00  0.0000E+00
 -10.370  0.0000E+00  0.0000E+00
 -10.360  0.0000E+00  0.0000E+00
 -10.350  0.0000E+00  0.0000E+00
 -10.340  0.0000E+00  0.0000E+00
 -10.330  0.0000E+00  0.0000E+00
 -10.320  0.0000E+00  0.0000E+00
 -10.310  0.0000E+00  0.0000E+00
 -10.300  0.0000E+00  0.0000E+00
 -10.290  0.0000E+00  0.0000E+00
 -10.280  0.0000E+00  0.0000E+00
 -10.270  0.0000E+00  0.0000E+00
 -10.260  0.0000E+00  0.0000E+00
 -10.250  0.0000E+00  0.0000E+00
 -10.240  0.0000E+00  0.0000E+00
 -10.230  0.0000E+00  0.0000E+00
 -10.220  0.0000E+00  0.0000E+00
 -10.210  0.0000E+00  0.0000E+00
 -10.200  0.0000E+00  0.0000E+00
 -10.190  0.0000E+00  0.0000E+00
 -10.180  0.0000E+00  0.0000E+00
 -10.170  0.0000E+00  0.0000E+00
 -10.160  0.0000E+00  0.0000E+00
 -10.150  0.0000E+00  0.0000E+00
 -10.140  0.0000E+00  0.0000E+00
 -10.130  0.0000E+00  0.0000E+00
 -10.120  0.0000E+00  0.0000E+00
 -10.110  0.0000E+00  0.0000E+00
 -10.100  0.0000E+00  0.0000E+00
 -10.090  0.0000E+00  0.0000E+00
 -10.080  0.0000E+00  0.0000E+00
 -10.070  0.0000E+00  0.0000E+00
 -10.060  0.0000E+00  0.0000E+00
 -10.050  0.0000E+00  0.0000E+00
 -10.040  0.0000E+00  0.0000E+00
 -10.030  0.0000E+00  0.0000E+00
 -10.020  0.0000E+00  0.0000E+00
 -10.010  0.0000E+00  0.0000E+00
 -10.000  0.0000E+00  0.0000E+00
  -9.990  0.0000E+00  0.0000E+00
  -9.980  0.0000E+00  0.0000E+00
  -9.970  0.0000E+00  0.0000E+00
  -9.960  0.0000E+00  0.0000E+00
  -9.950  0.0000E+00  0.0000E+00
  -9.940  0.0000E+00  0.0000E+00
  -9.930  0.0000E+00  0.0000E+00
  -9.920  0.0000E+00  0.0000E+00
  -9.910  0.0000E+00  0.0000E+00
  -9.900  0.0000E+00  0.0000E+00
  -9.890  0.0000E+00  0.0000E+00
  -9.880  0.0000E+00  0.0000E+00
  -9.870  0.0000E+00  0.0000E+00
  -9.860  0.0000E+00  0.0000E+00
  -9.850  0.0000E+00  0.0000E+00
  -9.840  0.0000E+00  0.0000E+00
  -9.830  0.0000E+00  0.0000E+00
  -9.820  0.0000E+00  0.0000E+00
  -9.810  0.0000E+00  0.0000E+00
  -9.800  0.0000E+00  0.0000E+00
  -9.790  0.0000E+00  0.0000E+00
  -9.780  0.0000E+00  0.0000E+00
  -9.770  0.0000E+00  0.0000E+00
  -9.760  0.0000E+00  0.0000E+00
  -9.750  0.0000E+00  0.0000E+00
  -9.740  0.0000E+00  0.0000E+00
  -9.730  0.0000E+00  0.0000E+00
  -9.720  0.0000E+00  0.0000E+00
  -9.710  0.0000E+00  0.0000E+00
  -9.700  0.0000E+00  0.0000E+00
  -9.690  0.0000E+00  0.0000E+00
  -9.680  0.0000E+00  0.0000E+00
  -9.670  0.0000E+00  0.0000E+00
  -9.660  0.0000E+00  0.0000E+00
  -9.650  0.0000E+00  0.0000E+00
  -9.640  0.0000E+00  0.0000E+00
  -9.630  0.0000E+00  0.0000E+00
  -9.620  0.0000E+00  0.0000E+00
  -9.610  0.0000E+00  0.0000E+00
  -9.600  0.0000E+00  0.0000E+00
  -9.590  0.0000E+00  0.0000E+00
  -9.580  0.0000E+00  0.0000E+00
  -9.570  0.0000E+00  0.0000E+00
  -9.560  0.0000E+00  0.0000E+00
  -9.550  0.0000E+00  0.0000E+00
  -9.540  0.0000E+00  0.0000E+00
  -9.530  0.0000E+00  0.0000E+00
  -9.520  0.0000E+00  0.0000E+00
  -9.510  0.0000E+00  0.0000E+00
  -9.500  0.0000E+00  0.0000E+00
  -9.490  0.0000E+00  0.0000E+00
  -9.480  0.0000E+00  0.0000E+00
  -9.470  0.0000E+00  0.0000E+00
  -9.460  0.0000E+00  0.0000E+00
  -9.450  0.0000E+00  0.0000E+00
  -9.440  0.0000E+00  0.0000E+00
  -9.430  0.0000E+00  0.0000E+00
  -9.420  0.0000E+00  0.0000E+00
  -9.410  0.0000E+00  0.0000E+00
  -9.400  0.0000E+00  0.0000E+00
  -9.390  0.0000E+00  0.0000E+00
  -9.380  0.0000E+00  0.0000E+00
  -9.370  0.0000E+00  0.0000E+00
  -9.360  0.0000E+00  0.0000E+00
  -9.350  0.0000E+00  0.0000E+00
  -9.340  0.0000E+00  0.0000E+00
  -9.330  0.0000E+00  0.0000E+00
  -9.320  0.0000E+00  0.0000E+00
  -9.310  0.0000E+00  0.0000E+00
  -9.300  0.0000E+00  0.0000E+00
  -9.290  0.0000E+00  0.0000E+00
  -9.280  0.0000E+00  0.0000E+00
  -9.270  0.0000E+00  0.0000E+00
  -9.260  0.0000E+00  0.0000E+00
  -9.250  0.0000E+00  0.0000E+00
  -9.240  0.0000E+00  0.0000E+00
  -9.230  0.0000E+00  0.0000E+00
  -9.220  0.0000E+00  0.0000E+00
  -9.210  0.0000E+00  0.0000E+00
  -9.200  0.0000E+00  0.0000E+00
  -9.190  0.0000E+00  0.0000E+00
  -9.180  0.0000E+00  0.0000E+00
  -9.170  0.0000E+00  0.0000E+00
  -9.160  0.0000E+00  0.0000E+00
  -9.150  0.0000E+00  0.0000E+00
  -9.140  0.0000E+00  0.0000E+00
  -9.130  0.0000E+00  0.0000E+00
  -9.120  0.0000E+00  0.0000E+00
  -9.110  0.0000E+00  0.0000E+00
  -9.100  0.0000E+00  0.0000E+00
  -9.090  0.0000E+00  0.0000E+00
  -9.080  0.0000E+00  0.0000E+00
  -9.070  0.0000E+00  0.0000E+00
  -9.060  0.0000E+00  0.0000E+00
  -9.050  0.0000E+00  0.0000E+00
  -9.040  0.0000E+00  0.0000E+00
  -9.030  0.0000E+00  0.0000E+00
  -9.020  0.0000E+00  0.0000E+00
  -9.010  0.0000E+00  0.0000E+00
  -9.000  0.0000E+00  0.0000E+00
  -8.990  0.0000E+00  0.0000E+00
  -8.980  0.0000E+00  0.0000E+00
  -8.970  0.0000E+00  0.0000E+00
  -8.960  0.0000E+00  0.0000E+00
  -8.950  0.0000E+00  0.0000E+00
  -8.940  0.0000E+00  0.0000E+00
  -8.930  0.0000E+00  0.0000E+00
  -8.920  0.0000E+00  0.0000E+00
  -8.910  0.0000E+00  0.0000E+00
  -8.900  0.0000E+00  0.0000E+00
  -8.890  0.0000E+00  0.0000E+00
  -8.880  0.0000E+00  0.0000E+00
  -8.870  0.0000E+00  0.0000E+00
  -8.860  0.0000E+00  0.0000E+00
  -8.850  0.0000E+00  0.0000E+00
  -8.840  0.0000E+00  0.0000E+00
  -8.830  0.0000E+00  0.0000E+00
  -8.820  0.0000E+00  0.0000E+00
  -8.810  0.0000E+00  0.0000E+00
  -8.800  0.0000E+00  0.0000E+00
  -8.790  0.0000E+00  0.0000E+00
  -8.780  0.0000E+00  0.0000E+00
  -8.770  0.0000E+00  0.0000E+00
  -8.760  0.0000E+00  0.0000E+00
  -8.750  0.0000E+00  0.0000E+00
  -8.740  0.0000E+00  0.0000E+00
  -8.730  0.0000E+00  0.0000E+00
  -8.720  0.0000E+00  0.0000E+00
  -8.710  0.0000E+00  0.0000E+00
  -8.700  0.0000E+00  0.0000E+00
  -8.690  0.0000E+00  0.0000E+00
  -8.680  0.0000E+00  0.0000E+00
  -8.670  0.0000E+00  0.0000E+00
  -8.660  0.0000E+00  0.0000E+00
  -8.650  0.0000E+00  0.0000E+00
  -8.640  0.0000E+00  0.0000E+00
  -8.630  0.0000E+00  0.0000E+00
  -8.620  0.0000E+00  0.0000E+00
  -8.610  0.0000E+00  0.0000E+00
  -8.600  0.0000E+00  0.0000E+00
  -8.590  0.0000E+00  0.0000E+00
  -8.580  0.0000E+00  0.0000E+00
  -8.570  0.1062E+00  0.2222E-03
  -8.560  0.3314E+00  0.2295E-02
  -8.550  0.5280E+00  0.7335E-02
  -8.540  0.5216E+00  0.1285E-01
  -8.530  0.5566E+00  0.1829E-01
  -8.520  0.5357E+00  0.2376E-01
  -8.510  0.7593E+00  0.3032E-01
  -8.500  0.9103E+00  0.3880E-01
  -8.490  0.9765E+00  0.4796E-01
  -8.480  0.1102E+01  0.5843E-01
  -8.470  0.1109E+01  0.6950E-01
  -8.460  0.1106E+01  0.8053E-01
  -8.450  0.1102E+01  0.9156E-01
  -8.440  0.1109E+01  0.1026E+00
  -8.430  0.1130E+01  0.1138E+00
  -8.420  0.1101E+01  0.1250E+00
  -8.410  0.1102E+01  0.1360E+00
  -8.400  0.1118E+01  0.1471E+00
  -8.390  0.1130E+01  0.1583E+00
  -8.380  0.1183E+01  0.1698E+00
  -8.370  0.1264E+01  0.1820E+00
  -8.360  0.1357E+01  0.1951E+00
  -8.350  0.1467E+01  0.2092E+00
  -8.340  0.1673E+01  0.2254E+00
  -8.330  0.1675E+01  0.2424E+00
  -8.320  0.1693E+01  0.2592E+00
  -8.310  0.1674E+01  0.2761E+00
  -8.300  0.1688E+01  0.2929E+00
  -8.290  0.2019E+01  0.3118E+00
  -8.280  0.2208E+01  0.3332E+00
  -8.270  0.2284E+01  0.3558E+00
  -8.260  0.2273E+01  0.3786E+00
  -8.250  0.2257E+01  0.4012E+00
  -8.240  0.2279E+01  0.4239E+00
  -8.230  0.2288E+01  0.4468E+00
  -8.220  0.2292E+01  0.4697E+00
  -8.210  0.2314E+01  0.4926E+00
  -8.200  0.2297E+01  0.5157E+00
  -8.190  0.2287E+01  0.5386E+00
  -8.180  0.2294E+01  0.5615E+00
  -8.170  0.2314E+01  0.5846E+00
  -8.160  0.2319E+01  0.6077E+00
  -8.150  0.2313E+01  0.6309E+00
  -8.140  0.2325E+01  0.6540E+00
  -8.130  0.2337E+01  0.6774E+00
  -8.120  0.2332E+01  0.7007E+00
  -8.110  0.2324E+01  0.7240E+00
  -8.100  0.2325E+01  0.7472E+00
  -8.090  0.2342E+01  0.7706E+00
  -8.080  0.2358E+01  0.7941E+00
  -8.070  0.2367E+01  0.8177E+00
  -8.060  0.2361E+01  0.8414E+00
  -8.050  0.2352E+01  0.8649E+00
  -8.040  0.2353E+01  0.8885E+00
  -8.030  0.2369E+01  0.9120E+00
  -8.020  0.2386E+01  0.9358E+00
  -8.010  0.2393E+01  0.9597E+00
  -8.000  0.2388E+01  0.9836E+00
  -7.990  0.2384E+01  0.1007E+01
  -7.980  0.2393E+01  0.1031E+01
  -7.970  0.2402E+01  0.1055E+01
  -7.960  0.2410E+01  0.1079E+01
  -7.950  0.2418E+01  0.1104E+01
  -7.940  0.2421E+01  0.1128E+01
  -7.930  0.2423E+01  0.1152E+01
  -7.920  0.2424E+01  0.1176E+01
  -7.910  0.2429E+01  0.1200E+01
  -7.900  0.2437E+01  0.1225E+01
  -7.890  0.2450E+01  0.1249E+01
  -7.880  0.2462E+01  0.1274E+01
  -7.870  0.2462E+01  0.1298E+01
  -7.860  0.2462E+01  0.1323E+01
  -7.850  0.2464E+01  0.1348E+01
  -7.840  0.2467E+01  0.1372E+01
  -7.830  0.2479E+01  0.1397E+01
  -7.820  0.2490E+01  0.1422E+01
  -7.810  0.2501E+01  0.1447E+01
  -7.800  0.2505E+01  0.1472E+01
  -7.790  0.2509E+01  0.1497E+01
  -7.780  0.2514E+01  0.1522E+01
  -7.770  0.2518E+01  0.1547E+01
  -7.760  0.2522E+01  0.1572E+01
  -7.750  0.2529E+01  0.1598E+01
  -7.740  0.2540E+01  0.1623E+01
  -7.730  0.2552E+01  0.1648E+01
  -7.720  0.2560E+01  0.1674E+01
  -7.710  0.2564E+01  0.1700E+01
  -7.700  0.2569E+01  0.1725E+01
  -7.690  0.2577E+01  0.1751E+01
  -7.680  0.2581E+01  0.1777E+01
  -7.670  0.2586E+01  0.1803E+01
  -7.660  0.2597E+01  0.1829E+01
  -7.650  0.2610E+01  0.1855E+01
  -7.640  0.2621E+01  0.1881E+01
  -7.630  0.2626E+01  0.1907E+01
  -7.620  0.2630E+01  0.1933E+01
  -7.610  0.2637E+01  0.1960E+01
  -7.600  0.2648E+01  0.1986E+01
  -7.590  0.2658E+01  0.2013E+01
  -7.580  0.2665E+01  0.2039E+01
  -7.570  0.2672E+01  0.2066E+01
  -7.560  0.2682E+01  0.2093E+01
  -7.550  0.2695E+01  0.2120E+01
  -7.540  0.2704E+01  0.2147E+01
  -7.530  0.2713E+01  0.2174E+01
  -7.520  0.2720E+01  0.2201E+01
  -7.510  0.2728E+01  0.2228E+01
  -7.500  0.2737E+01  0.2255E+01
  -7.490  0.2749E+01  0.2283E+01
  -7.480  0.2763E+01  0.2310E+01
  -7.470  0.2773E+01  0.2338E+01
  -7.460  0.2784E+01  0.2366E+01
  -7.450  0.2792E+01  0.2394E+01
  -7.440  0.2800E+01  0.2422E+01
  -7.430  0.2814E+01  0.2450E+01
  -7.420  0.2827E+01  0.2478E+01
  -7.410  0.2837E+01  0.2506E+01
  -7.400  0.2846E+01  0.2535E+01
  -7.390  0.2856E+01  0.2563E+01
  -7.380  0.2872E+01  0.2592E+01
  -7.370  0.2888E+01  0.2621E+01
  -7.360  0.2902E+01  0.2650E+01
  -7.350  0.2912E+01  0.2679E+01
  -7.340  0.2922E+01  0.2708E+01
  -7.330  0.2934E+01  0.2737E+01
  -7.320  0.2948E+01  0.2766E+01
  -7.310  0.2965E+01  0.2796E+01
  -7.300  0.2979E+01  0.2826E+01
  -7.290  0.2991E+01  0.2856E+01
  -7.280  0.3005E+01  0.2886E+01
  -7.270  0.3023E+01  0.2916E+01
  -7.260  0.3038E+01  0.2946E+01
  -7.250  0.3054E+01  0.2977E+01
  -7.240  0.3070E+01  0.3007E+01
  -7.230  0.3085E+01  0.3038E+01
  -7.220  0.3099E+01  0.3069E+01
  -7.210  0.3117E+01  0.3100E+01
  -7.200  0.3135E+01  0.3131E+01
  -7.190  0.3154E+01  0.3163E+01
  -7.180  0.3174E+01  0.3194E+01
  -7.170  0.3191E+01  0.3226E+01
  -7.160  0.3209E+01  0.3258E+01
  -7.150  0.3228E+01  0.3290E+01
  -7.140  0.3249E+01  0.3323E+01
  -7.130  0.3272E+01  0.3355E+01
  -7.120  0.3292E+01  0.3388E+01
  -7.110  0.3310E+01  0.3421E+01
  -7.100  0.3332E+01  0.3454E+01
  -7.090  0.3355E+01  0.3488E+01
  -7.080  0.3380E+01  0.3521E+01
  -7.070  0.3407E+01  0.3555E+01
  -7.060  0.3429E+01  0.3590E+01
  -7.050  0.3451E+01  0.3624E+01
  -7.040  0.3478E+01  0.3659E+01
  -7.030  0.3507E+01  0.3694E+01
  -7.020  0.3535E+01  0.3729E+01
  -7.010  0.3563E+01  0.3764E+01
  -7.000  0.3589E+01  0.3800E+01
  -6.990  0.3619E+01  0.3836E+01
  -6.980  0.3651E+01  0.3872E+01
  -6.970  0.3685E+01  0.3909E+01
  -6.960  0.3719E+01  0.3946E+01
  -6.950  0.3749E+01  0.3983E+01
  -6.940  0.3783E+01  0.4021E+01
  -6.930  0.3822E+01  0.4059E+01
  -6.920  0.3861E+01  0.4098E+01
  -6.910  0.3902E+01  0.4136E+01
  -6.900  0.3940E+01  0.4176E+01
  -6.890  0.3981E+01  0.4215E+01
  -6.880  0.4025E+01  0.4255E+01
  -6.870  0.4072E+01  0.4296E+01
  -6.860  0.4121E+01  0.4337E+01
  -6.850  0.4167E+01  0.4378E+01
  -6.840  0.4216E+01  0.4420E+01
  -6.830  0.4273E+01  0.4462E+01
  -6.820  0.4332E+01  0.4505E+01
  -6.810  0.4394E+01  0.4549E+01
  -6.800  0.4452E+01  0.4593E+01
  -6.790  0.4517E+01  0.4638E+01
  -6.780  0.4585E+01  0.4684E+01
  -6.770  0.4663E+01  0.4730E+01
  -6.760  0.4738E+01  0.4777E+01
  -6.750  0.4810E+01  0.4825E+01
  -6.740  0.4902E+01  0.4873E+01
  -6.730  0.5005E+01  0.4923E+01
  -6.720  0.5102E+01  0.4973E+01
  -6.710  0.5200E+01  0.5025E+01
  -6.700  0.5320E+01  0.5077E+01
  -6.690  0.5462E+01  0.5131E+01
  -6.680  0.5589E+01  0.5186E+01
  -6.670  0.5724E+01  0.5243E+01
  -6.660  0.5916E+01  0.5301E+01
  -6.650  0.6112E+01  0.5361E+01
  -6.640  0.6324E+01  0.5423E+01
  -6.630  0.6613E+01  0.5488E+01
  -6.620  0.6969E+01  0.5556E+01
  -6.610  0.7518E+01  0.5628E+01
  -6.600  0.8418E+01  0.5708E+01
  -6.590  0.8087E+01  0.5790E+01
  -6.580  0.8932E+01  0.5873E+01
  -6.570  0.8483E+01  0.5957E+01
  -6.560  0.8039E+01  0.6040E+01
  -6.550  0.7961E+01  0.6119E+01
  -6.540  0.7936E+01  0.6198E+01
  -6.530  0.8285E+01  0.6279E+01
  -6.520  0.8657E+01  0.6364E+01
  -6.510  0.8562E+01  0.6452E+01
  -6.500  0.8468E+01  0.6537E+01
  -6.490  0.8719E+01  0.6624E+01
  -6.480  0.7985E+01  0.6708E+01
  -6.470  0.7243E+01  0.6784E+01
  -6.460  0.6906E+01  0.6855E+01
  -6.450  0.6629E+01  0.6922E+01
  -6.440  0.6336E+01  0.6987E+01
  -6.430  0.6149E+01  0.7049E+01
  -6.420  0.5969E+01  0.7110E+01
  -6.410  0.5761E+01  0.7169E+01
  -6.400  0.5639E+01  0.7226E+01
  -6.390  0.5495E+01  0.7281E+01
  -6.380  0.5387E+01  0.7336E+01
  -6.370  0.5204E+01  0.7389E+01
  -6.360  0.5183E+01  0.7440E+01
  -6.350  0.4979E+01  0.7491E+01
  -6.340  0.4913E+01  0.7541E+01
  -6.330  0.4866E+01  0.7590E+01
  -6.320  0.4677E+01  0.7637E+01
  -6.310  0.4696E+01  0.7684E+01
  -6.300  0.4563E+01  0.7731E+01
  -6.290  0.4469E+01  0.7776E+01
  -6.280  0.4396E+01  0.7821E+01
  -6.270  0.4295E+01  0.7865E+01
  -6.260  0.3700E+01  0.7908E+01
  -6.250  0.2408E+01  0.7938E+01
  -6.240  0.2427E+01  0.7962E+01
  -6.230  0.2219E+01  0.7985E+01
  -6.220  0.0000E+00  0.8000E+01
  -6.210  0.0000E+00  0.8000E+01
  -6.200  0.0000E+00  0.8000E+01
  -6.190  0.0000E+00  0.8000E+01
  -6.180  0.0000E+00  0.8000E+01
  -6.170  0.0000E+00  0.8000E+01
  -6.160  0.0000E+00  0.8000E+01
  -6.150  0.0000E+00  0.8000E+01
  -6.140  0.0000E+00  0.8000E+01
  -6.130  0.0000E+00  0.8000E+01
  -6.120  0.0000E+00  0.8000E+01
  -6.110  0.0000E+00  0.8000E+01
  -6.100  0.0000E+00  0.8000E+01
  -6.090  0.0000E+00  0.8000E+01
  -6.080  0.0000E+00  0.8000E+01
  -6.070  0.0000E+00  0.8000E+01
  -6.060  0.0000E+00  0.8000E+01
  -6.050  0.0000E+00  0.8000E+01
  -6.040  0.0000E+00  0.8000E+01
  -6.030  0.0000E+00  0.8000E+01
  -6.020  0.0000E+00  0.8000E+01
  -6.010  0.0000E+00  0.8000E+01
  -6.000  0.0000E+00  0.8000E+01
  -5.990  0.0000E+00  0.8000E+01
  -5.980  0.0000E+00  0.8000E+01
  -5.970  0.0000E+00  0.8000E+01
  -5.960  0.0000E+00  0.8000E+01
  -5.950  0.0000E+00  0.8000E+01
  -5.940  0.0000E+00  0.8000E+01
  -5.930  0.0000E+00  0.8000E+01
  -5.920  0.0000E+00  0.8000E+01
  -5.910  0.0000E+00  0.8000E+01
  -5.900  0.0000E+00  0.8000E+01
  -5.890  0.0000E+00  0.8000E+01
  -5.880  0.0000E+00  0.8000E+01
  -5.870  0.0000E+00  0.8000E+01
  -5.860  0.0000E+00  0.8000E+01
  -5.850  0.0000E+00  0.8000E+01
  -5.840  0.0000E+00  0.8000E+01
  -5.830  0.0000E+00  0.8000E+01
  -5.820  0.0000E+00  0.8000E+01
  -5.810  0.0000E+00  0.8000E+01
  -5.800  0.0000E+00  0.8000E+01
  -5.790  0.0000E+00  0.8000E+01
  -5.780  0.0000E+00  0.8000E+01
  -5.770  0.0000E+00  0.8000E+01
  -5.760  0.0000E+00  0.8000E+01
  -5.750  0.0000E+00  0.8000E+01
  -5.740  0.0000E+00  0.8000E+01
  -5.730  0.0000E+00  0.8000E+01
  -5.720  0.0000E+00  0.8000E+01
  -5.710  0.0000E+00  0.8000E+01
  -5.700  0.0000E+00  0.8000E+01
  -5.690  0.0000E+00  0.8000E+01
  -5.680  0.0000E+00  0.8000E+01
  -5.670  0.0000E+00  0.8000E+01
  -5.660  0.0000E+00  0.8000E+01
  -5.650  0.0000E+00  0.8000E+01
  -5.640  0.0000E+00  0.8000E+01
  -5.630  0.0000E+00  0.8000E+01
  -5.620  0.0000E+00  0.8000E+01
  -5.610  0.0000E+00  0.8000E+01
  -5.600  0.0000E+00  0.8000E+01
  -5.590  0.0000E+00  0.8000E+01
  -5.580  0.0000E+00  0.8000E+01
  -5.570  0.0000E+00  0.8000E+01
  -5.560  0.0000E+00  0.8000E+01
  -5.550  0.0000E+00  0.8000E+01
  -5.540  0.0000E+00  0.8000E+01
  -5.530  0.0000E+00  0.8000E+01
  -5.520  0.0000E+00  0.8000E+01
  -5.510  0.0000E+00  0.8000E+01
  -5.500  0.0000E+00  0.8000E+01
  -5.490  0.0000E+00  0.8000E+01
  -5.480  0.0000E+00  0.8000E+01
  -5.470  0.0000E+00  0.8000E+01
  -5.460  0.0000E+00  0.8000E+01
  -5.450  0.0000E+00  0.8000E+01
  -5.440  0.0000E+00  0.8000E+01
  -5.430  0.0000E+00  0.8000E+01
  -5.420  0.0000E+00  0.8000E+01
  -5.410  0.0000E+00  0.8000E+01
  -5.400  0.0000E+00  0.8000E+01
  -5.390  0.0000E+00  0.8000E+01
  -5.380  0.0000E+00  0.8000E+01
  -5.370  0.0000E+00  0.8000E+01
  -5.360  0.0000E+00  0.8000E+01
  -5.350  0.0000E+00  0.8000E+01
  -5.340  0.0000E+00  0.8000E+01
  -5.330  0.0000E+00  0.8000E+01
  -5.320  0.0000E+00  0.8000E+01
  -5.310  0.0000E+00  0.8000E+01
  -5.300  0.0000E+00  0.8000E+01
  -5.290  0.0000E+00  0.8000E+01
  -5.280  0.0000E+00  0.8000E+01
  -5.270  0.0000E+00  0.8000E+01
  -5.260  0.0000E+00  0.8000E+01
  -5.250  0.0000E+00  0.8000E+01
  -5.240  0.0000E+00  0.8000E+01
  -5.230  0.0000E+00  0.8000E+01
  -5.220  0.0000E+00  0.8000E+01
  -5.210  0.0000E+00  0.8000E+01
  -5.200  0.0000E+00  0.8000E+01
  -5.190  0.0000E+00  0.8000E+01
  -5.180  0.0000E+00  0.8000E+01
  -5.170  0.0000E+00  0.8000E+01
  -5.160  0.0000E+00  0.8000E+01
  -5.150  0.0000E+00  0.8000E+01
  -5.140  0.0000E+00  0.8000E+01
  -5.130  0.0000E+00  0.8000E+01
  -5.120  0.0000E+00  0.8000E+01
  -5.110  0.0000E+00  0.8000E+01
  -5.100  0.0000E+00  0.8000E+01
  -5.090  0.0000E+00  0.8000E+01
  -5.080  0.0000E+00  0.8000E+01
  -5.070  0.0000E+00  0.8000E+01
  -5.060  0.0000E+00  0.8000E+01
  -5.050  0.0000E+00  0.8000E+01
  -5.040  0.0000E+00  0.8000E+01
  -5.030  0.0000E+00  0.8000E+01
  -5.020  0.0000E+00  0.8000E+01
  -5.010  0.0000E+00  0.8000E+01
  -5.000  0.0000E+00  0.8000E+01
  -4.990  0.0000E+00  0.8000E+01
  -4.980  0.0000E+00  0.8000E+01
  -4.970  0.0000E+00  0.8000E+01
  -4.960  0.0000E+00  0.8000E+01
  -4.950  0.0000E+00  0.8000E+01
  -4.940  0.0000E+00  0.8000E+01
  -4.930  0.0000E+00  0.8000E+01
  -4.920  0.0000E+00  0.8000E+01
  -4.910  0.0000E+00  0.8000E+01
  -4.900  0.0000E+00  0.8000E+01
  -4.890  0.0000E+00  0.8000E+01
  -4.880  0.0000E+00  0.8000E+01
  -4.870  0.0000E+00  0.8000E+01
  -4.860  0.0000E+00  0.8000E+01
  -4.850  0.0000E+00  0.8000E+01
  -4.840  0.0000E+00  0.8000E+01
  -4.830  0.0000E+00  0.8000E+01
  -4.820  0.0000E+00  0.8000E+01
  -4.810  0.0000E+00  0.8000E+01
  -4.800  0.0000E+00  0.8000E+01
  -4.790  0.0000E+00  0.8000E+01
  -4.780  0.0000E+00  0.8000E+01
  -4.770  0.0000E+00  0.8000E+01
  -4.760  0.0000E+00  0.8000E+01
  -4.750  0.0000E+00  0.8000E+01
  -4.740  0.0000E+00  0.8000E+01
  -4.730  0.0000E+00  0.8000E+01
  -4.720  0.0000E+00  0.8000E+01
  -4.710  0.0000E+00  0.8000E+01
  -4.700  0.0000E+00  0.8000E+01
  -4.690  0.0000E+00  0.8000E+01
  -4.680  0.0000E+00  0.8000E+01
  -4.670  0.0000E+00  0.8000E+01
  -4.660  0.0000E+00  0.8000E+01
  -4.650  0.0000E+00  0.8000E+01
  -4.640  0.0000E+00  0.8000E+01
  -4.630  0.0000E+00  0.8000E+01
  -4.620  0.0000E+00  0.8000E+01
  -4.610  0.0000E+00  0.8000E+01
  -4.600  0.0000E+00  0.8000E+01
  -4.590  0.0000E+00  0.8000E+01
  -4.580  0.0000E+00  0.8000E+01
  -4.570  0.0000E+00  0.8000E+01
  -4.560  0.0000E+00  0.8000E+01
  -4.550  0.0000E+00  0.8000E+01
  -4.540  0.0000E+00  0.8000E+01
  -4.530  0.0000E+00  0.8000E+01
  -4.520  0.0000E+00  0.8000E+01
  -4.510  0.0000E+00  0.8000E+01
  -4.500  0.0000E+00  0.8000E+01
  -4.490  0.0000E+00  0.8000E+01
  -4.480  0.0000E+00  0.8000E+01
  -4.470  0.0000E+00  0.8000E+01
  -4.460  0.0000E+00  0.8000E+01
  -4.450  0.0000E+00  0.8000E+01
  -4.440  0.0000E+00  0.8000E+01
  -4.430  0.0000E+00  0.8000E+01
  -4.420  0.0000E+00  0.8000E+01
  -4.410  0.0000E+00  0.8000E+01
  -4.400  0.0000E+00  0.8000E+01
  -4.390  0.0000E+00  0.8000E+01
  -4.380  0.0000E+00  0.8000E+01
  -4.370  0.0000E+00  0.8000E+01
  -4.360  0.0000E+00  0.8000E+01
  -4.350  0.0000E+00  0.8000E+01
  -4.340  0.0000E+00  0.8000E+01
  -4.330  0.0000E+00  0.8000E+01
  -4.320  0.0000E+00  0.8000E+01
  -4.310  0.0000E+00  0.8000E+01
  -4.300  0.0000E+00  0.8000E+01
  -4.290  0.0000E+00  0.8000E+01
  -4.280  0.0000E+00  0.8000E+01
  -4.270  0.0000E+00  0.8000E+01
  -4.260  0.0000E+00  0.8000E+01
  -4.250  0.0000E+00  0.8000E+01
  -4.240  0.0000E+00  0.8000E+01
  -4.230  0.0000E+00  0.8000E+01
  -4.220  0.0000E+00  0.8000E+01
  -4.210  0.0000E+00  0.8000E+01
  -4.200  0.0000E+00  0.8000E+01
  -4.190  0.0000E+00  0.8000E+01
  -4.180  0.0000E+00  0.8000E+01
  -4.170  0.0000E+00  0.8000E+01
  -4.160  0.0000E+00  0.8000E+01
  -4.150  0.0000E+00  0.8000E+01
  -4.140  0.0000E+00  0.8000E+01
  -4.130  0.0000E+00  0.8000E+01
  -4.120  0.0000E+00  0.8000E+01
  -4.110  0.0000E+00  0.8000E+01
  -4.100  0.0000E+00  0.8000E+01
  -4.090  0.0000E+00  0.8000E+01
  -4.080  0.0000E+00  0.8000E+01
  -4.070  0.0000E+00  0.8000E+01
  -4.060  0.0000E+00  0.8000E+01
  -4.050  0.0000E+00  0.8000E+01
  -4.040  0.0000E+00  0.8000E+01
  -4.030  0.0000E+00  0.8000E+01
  -4.020  0.0000E+00  0.8000E+01
  -4.010  0.0000E+00  0.8000E+01
  -4.000  0.0000E+00  0.8000E+01
  -3.990  0.0000E+00  0.8000E+01
  -3.980  0.0000E+00  0.8000E+01
  -3.970  0.0000E+00  0.8000E+01
  -3.960  0.0000E+00  0.8000E+01
  -3.950  0.0000E+00  0.8000E+01
  -3.940  0.0000E+00  0.8000E+01
  -3.930  0.0000E+00  0.8000E+01
  -3.920  0.0000E+00  0.8000E+01
  -3.910  0.0000E+00  0.8000E+01
  -3.900  0.0000E+00  0.8000E+01
  -3.890  0.0000E+00  0.8000E+01
  -3.880  0.0000E+00  0.8000E+01
  -3.870  0.0000E+00  0.8000E+01
  -3.860  0.0000E+00  0.8000E+01
  -3.850  0.0000E+00  0.8000E+01
  -3.840  0.0000E+00  0.8000E+01
  -3.830  0.0000E+00  0.8000E+01
  -3.820  0.0000E+00  0.8000E+01
  -3.810  0.0000E+00  0.8000E+01
  -3.800  0.0000E+00  0.8000E+01
  -3.790  0.0000E+00  0.8000E+01
  -3.780  0.0000E+00  0.8000E+01
  -3.770  0.0000E+00  0.8000E+01
  -3.760  0.0000E+00  0.8000E+01
  -3.750  0.0000E+00  0.8000E+01
  -3.740  0.0000E+00  0.8000E+01
  -3.730  0.0000E+00  0.8000E+01
  -3.720  0.0000E+00  0.8000E+01
  -3.710  0.0000E+00  0.8000E+01
  -3.700  0.0000E+00  0.8000E+01
  -3.690  0.0000E+00  0.8000E+01
  -3.680  0.0000E+00  0.8000E+01
  -3.670  0.0000E+00  0.8000E+01
  -3.660  0.0000E+00  0.8000E+01
  -3.650  0.0000E+00  0.8000E+01
  -3.640  0.0000E+00  0.8000E+01
  -3.630  0.0000E+00  0.8000E+01
  -3.620  0.0000E+00  0.8000E+01
  -3.610  0.0000E+00  0.8000E+01
  -3.600  0.0000E+00  0.8000E+01
  -3.590  0.0000E+00  0.8000E+01
  -3.580  0.0000E+00  0.8000E+01
  -3.570  0.0000E+00  0.8000E+01
  -3.560  0.0000E+00  0.8000E+01
  -3.550  0.0000E+00  0.8000E+01
  -3.540  0.0000E+00  0.8000E+01
  -3.530  0.0000E+00  0.8000E+01
  -3.520  0.0000E+00  0.8000E+01
  -3.510  0.0000E+00  0.8000E+01
  -3.500  0.0000E+00  0.8000E+01
  -3.490  0.0000E+00  0.8000E+01
  -3.480  0.0000E+00  0.8000E+01
  -3.470  0.0000E+00  0.8000E+01
  -3.460  0.0000E+00  0.8000E+01
  -3.450  0.0000E+00  0.8000E+01
  -3.440  0.0000E+00  0.8000E+01
  -3.430  0.0000E+00  0.8000E+01
  -3.420  0.0000E+00  0.8000E+01
  -3.410  0.0000E+00  0.8000E+01
  -3.400  0.0000E+00  0.8000E+01
  -3.390  0.0000E+00  0.8000E+01
  -3.380  0.0000E+00  0.8000E+01
  -3.370  0.0000E+00  0.8000E+01
  -3.360  0.0000E+00  0.8000E+01
  -3.350  0.0000E+00  0.8000E+01
  -3.340  0.0000E+00  0.8000E+01
  -3.330  0.0000E+00  0.8000E+01
  -3.320  0.0000E+00  0.8000E+01
  -3.310  0.0000E+00  0.8000E+01
  -3.300  0.0000E+00  0.8000E+01
  -3.290  0.0000E+00  0.8000E+01
  -3.280  0.0000E+00  0.8000E+01
  -3.270  0.0000E+00  0.8000E+01
  -3.260  0.0000E+00  0.8000E+01
  -3.250  0.0000E+00  0.8000E+01
  -3.240  0.0000E+00  0.8000E+01
  -3.230  0.0000E+00  0.8000E+01
  -3.220  0.0000E+00  0.8000E+01
  -3.210  0.0000E+00  0.8000E+01
  -3.200  0.0000E+00  0.8000E+01
  -3.190  0.0000E+00  0.8000E+01
  -3.180  0.0000E+00  0.8000E+01
  -3.170  0.0000E+00  0.8000E+01
  -3.160  0.0000E+00  0.8000E+01
  -3.150  0.0000E+00  0.8000E+01
  -3.140  0.0000E+00  0.8000E+01
  -3.130  0.0000E+00  0.8000E+01
  -3.120  0.0000E+00  0.8000E+01
  -3.110  0.0000E+00  0.8000E+01
  -3.100  0.0000E+00  0.8000E+01
  -3.090  0.0000E+00  0.8000E+01
  -3.080  0.0000E+00  0.8000E+01
  -3.070  0.0000E+00  0.8000E+01
  -3.060  0.0000E+00  0.8000E+01
  -3.050  0.0000E+00  0.8000E+01
  -3.040  0.0000E+00  0.8000E+01
  -3.030  0.0000E+00  0.8000E+01
  -3.020  0.0000E+00  0.8000E+01
  -3.010  0.0000E+00  0.8000E+01
  -3.000  0.0000E+00  0.8000E+01
  -2.990  0.0000E+00  0.8000E+01
  -2.980  0.0000E+00  0.8000E+01
  -2.970  0.0000E+00  0.8000E+01
  -2.960  0.0000E+00  0.8000E+01
  -2.950  0.0000E+00  0.8000E+01
  -2.940  0.0000E+00  0.8000E+01
  -2.930  0.0000E+00  0.8000E+01
  -2.920  0.0000E+00  0.8000E+01
  -2.910  0.0000E+00  0.8000E+01
  -2.900  0.0000E+00  0.8000E+01
  -2.890  0.0000E+00  0.8000E+01
  -2.880  0.0000E+00  0.8000E+01
  -2.870  0.0000E+00  0.8000E+01
  -2.860  0.0000E+00  0.8000E+01
  -2.850  0.0000E+00  0.8000E+01
  -2.840  0.0000E+00  0.8000E+01
  -2.830  0.0000E+00  0.8000E+01
  -2.820  0.0000E+00  0.8000E+01
  -2.810  0.0000E+00  0.8000E+01
  -2.800  0.0000E+00  0.8000E+01
  -2.790  0.0000E+00  0.8000E+01
  -2.780  0.0000E+00  0.8000E+01
  -2.770  0.0000E+00  0.8000E+01
  -2.760  0.0000E+00  0.8000E+01
  -2.750  0.0000E+00  0.8000E+01
  -2.740  0.0000E+00  0.8000E+01
  -2.730  0.0000E+00  0.8000E+01
  -2.720  0.0000E+00  0.8000E+01
  -2.710  0.0000E+00  0.8000E+01
  -2.700  0.0000E+00  0.8000E+01
  -2.690  0.0000E+00  0.8000E+01
  -2.680  0.0000E+00  0.8000E+01
  -2.670  0.0000E+00  0.8000E+01
  -2.660  0.0000E+00  0.8000E+01
  -2.650  0.0000E+00  0.8000E+01
  -2.640  0.0000E+00  0.8000E+01
  -2.630  0.0000E+00  0.8000E+01
  -2.620  0.0000E+00  0.8000E+01
  -2.610  0.0000E+00  0.8000E+01
  -2.600  0.0000E+00  0.8000E+01
  -2.590  0.0000E+00  0.8000E+01
  -2.580  0.0000E+00  0.8000E+01
  -2.570  0.0000E+00  0.8000E+01
  -2.560  0.0000E+00  0.8000E+01
  -2.550  0.0000E+00  0.8000E+01
  -2.540  0.0000E+00  0.8000E+01
  -2.530  0.0000E+00  0.8000E+01
  -2.520  0.0000E+00  0.8000E+01
  -2.510  0.0000E+00  0.8000E+01
  -2.500  0.0000E+00  0.8000E+01
  -2.490  0.0000E+00  0.8000E+01
  -2.480  0.0000E+00  0.8000E+01
  -2.470  0.0000E+00  0.8000E+01
  -2.460  0.0000E+00  0.8000E+01
  -2.450  0.0000E+00  0.8000E+01
  -2.440  0.0000E+00  0.8000E+01
  -2.430  0.0000E+00  0.8000E+01
  -2.420  0.0000E+00  0.8000E+01
  -2.410  0.0000E+00  0.8000E+01
  -2.400  0.0000E+00  0.8000E+01
  -2.390  0.0000E+00  0.8000E+01
  -2.380  0.0000E+00  0.8000E+01
  -2.370  0.0000E+00  0.8000E+01
  -2.360  0.0000E+00  0.8000E+01
  -2.350  0.0000E+00  0.8000E+01
  -2.340  0.0000E+00  0.8000E+01
  -2.330  0.0000E+00  0.8000E+01
  -2.320  0.0000E+00  0.8000E+01
  -2.310  0.0000E+00  0.8000E+01
  -2.300  0.0000E+00  0.8000E+01
  -2.290  0.0000E+00  0.8000E+01
  -2.280  0.0000E+00  0.8000E+01
  -2.270  0.0000E+00  0.8000E+01
  -2.260  0.0000E+00  0.8000E+01
  -2.250  0.0000E+00  0.8000E+01
  -2.240  0.0000E+00  0.8000E+01
  -2.230  0.0000E+00  0.8000E+01
  -2.220  0.0000E+00  0.8000E+01
  -2.210  0.0000E+00  0.8000E+01
  -2.200  0.0000E+00  0.8000E+01
  -2.190  0.0000E+00  0.8000E+01
  -2.180  0.0000E+00  0.8000E+01
  -2.170  0.0000E+00  0.8000E+01
  -2.160  0.0000E+00  0.8000E+01
  -2.150  0.0000E+00  0.8000E+01
  -2.140  0.0000E+00  0.8000E+01
  -2.130  0.0000E+00  0.8000E+01
  -2.120  0.0000E+00  0.8000E+01
  -2.110  0.0000E+00  0.8000E+01
  -2.100  0.0000E+00  0.8000E+01
  -2.090  0.0000E+00  0.8000E+01
  -2.080  0.0000E+00  0.8000E+01
  -2.070  0.0000E+00  0.8000E+01
  -2.060  0.0000E+00  0.8000E+01
  -2.050  0.0000E+00  0.8000E+01
  -2.040  0.0000E+00  0.8000E+01
  -2.030  0.0000E+00  0.8000E+01
  -2.020  0.0000E+00  0.8000E+01
  -2.010  0.0000E+00  0.8000E+01
  -2.000  0.0000E+00  0.8000E+01
  -1.990  0.0000E+00  0.8000E+01
  -1.980  0.0000E+00  0.8000E+01
  -1.970  0.0000E+00  0.8000E+01
  -1.960  0.0000E+00  0.8000E+01
  -1.950  0.0000E+00  0.8000E+01
  -1.940  0.0000E+00  0.8000E+01
  -1.930  0.0000E+00  0.8000E+01
  -1.920  0.0000E+00  0.8000E+01
  -1.910  0.0000E+00  0.8000E+01
  -1.900  0.0000E+00  0.8000E+01
  -1.890  0.0000E+00  0.8000E+01
  -1.880  0.0000E+00  0.8000E+01
  -1.870  0.0000E+00  0.8000E+01
  -1.860  0.0000E+00  0.8000E+01
  -1.850  0.0000E+00  0.8000E+01
  -1.840  0.0000E+00  0.8000E+01
  -1.830  0.0000E+00  0.8000E+01
  -1.820  0.0000E+00  0.8000E+01
  -1.810  0.0000E+00  0.8000E+01
  -1.800  0.0000E+00  0.8000E+01
  -1.790  0.0000E+00  0.8000E+01
  -1.780  0.0000E+00  0.8000E+01
  -1.770  0.0000E+00  0.8000E+01
  -1.760  0.0000E+00  0.8000E+01
  -1.750  0.0000E+00  0.8000E+01
  -1.740  0.0000E+00  0.8000E+01
  -1.730  0.0000E+00  0.8000E+01
  -1.720  0.0000E+00  0.8000E+01
  -1.710  0.0000E+00  0.8000E+01
  -1.700  0.0000E+00  0.8000E+01
  -1.690  0.0000E+00  0.8000E+01
  -1.680  0.0000E+00  0.8000E+01
  -1.670  0.0000E+00  0.8000E+01
  -1.660  0.0000E+00  0.8000E+01
  -1.650  0.0000E+00  0.8000E+01
  -1.640  0.0000E+00  0.8000E+01
  -1.630  0.0000E+00  0.8000E+01
  -1.620  0.0000E+00  0.8000E+01
  -1.610  0.0000E+00  0.8000E+01
  -1.600  0.0000E+00  0.8000E+01
  -1.590  0.0000E+00  0.8000E+01
  -1.580  0.0000E+00  0.8000E+01
  -1.570  0.0000E+00  0.8000E+01
  -1.560  0.0000E+00  0.8000E+01
  -1.550  0.0000E+00  0.8000E+01
  -1.540  0.0000E+00  0.8000E+01
  -1.530  0.0000E+00  0.8000E+01
  -1.520  0.0000E+00  0.8000E+01
  -1.510  0.0000E+00  0.8000E+01
  -1.500  0.0000E+00  0.8000E+01
  -1.490  0.0000E+00  0.8000E+01
  -1.480  0.0000E+00  0.8000E+01
  -1.470  0.0000E+00  0.8000E+01
  -1.460  0.0000E+00  0.8000E+01
  -1.450  0.0000E+00  0.8000E+01
  -1.440  0.0000E+00  0.8000E+01
  -1.430  0.0000E+00  0.8000E+01
  -1.420  0.0000E+00  0.8000E+01
  -1.410  0.0000E+00  0.8000E+01
  -1.400  0.0000E+00  0.8000E+01
  -1.390  0.0000E+00  0.8000E+01
  -1.380  0.0000E+00  0.8000E+01
  -1.370  0.0000E+00  0.8000E+01
  -1.360  0.0000E+00  0.8000E+01
  -1.350  0.0000E+00  0.8000E+01
  -1.340  0.0000E+00  0.8000E+01
  -1.330  0.0000E+00  0.8000E+01
  -1.320  0.0000E+00  0.8000E+01
  -1.310  0.0000E+00  0.8000E+01
  -1.300  0.0000E+00  0.8000E+01
  -1.290  0.0000E+00  0.8000E+01
  -1.280  0.0000E+00  0.8000E+01
  -1.270  0.0000E+00  0.8000E+01
  -1.260  0.0000E+00  0.8000E+01
  -1.250  0.0000E+00  0.8000E+01
  -1.240  0.0000E+00  0.8000E+01
  -1.230  0.0000E+00  0.8000E+01
  -1.220  0.0000E+00  0.8000E+01
  -1.210  0.0000E+00  0.8000E+01
  -1.200  0.0000E+00  0.8000E+01
  -1.190  0.0000E+00  0.8000E+01
  -1.180  0.4764E-02  0.8000E+01
  -1.170  0.3896E-01  0.8000E+01
  -1.160  0.7489E-01  0.8001E+01
  -1.150  0.1072E+00  0.8002E+01
  -1.140  0.1433E+00  0.8003E+01
  -1.130  0.1762E+00  0.8005E+01
  -1.120  0.2102E+00  0.8007E+01
  -1.110  0.2463E+00  0.8009E+01
  -1.100  0.2800E+00  0.8011E+01
  -1.090  0.4027E+00  0.8015E+01
  -1.080  0.4609E+00  0.8019E+01
  -1.070  0.4454E+00  0.8024E+01
  -1.060  0.4709E+00  0.8029E+01
  -1.050  0.4656E+00  0.8033E+01
  -1.040  0.4580E+00  0.8038E+01
  -1.030  0.4745E+00  0.8043E+01
  -1.020  0.4624E+00  0.8047E+01
  -1.010  0.4648E+00  0.8052E+01
  -1.000  0.4662E+00  0.8057E+01
  -0.990  0.4765E+00  0.8061E+01
  -0.980  0.4676E+00  0.8066E+01
  -0.970  0.4677E+00  0.8071E+01
  -0.960  0.4704E+00  0.8075E+01
  -0.950  0.4725E+00  0.8080E+01
  -0.940  0.4794E+00  0.8085E+01
  -0.930  0.4698E+00  0.8090E+01
  -0.920  0.4718E+00  0.8094E+01
  -0.910  0.7035E+00  0.8100E+01
  -0.900  0.1132E+01  0.8109E+01
  -0.890  0.1268E+01  0.8122E+01
  -0.880  0.1334E+01  0.8135E+01
  -0.870  0.1361E+01  0.8148E+01
  -0.860  0.1710E+01  0.8162E+01
  -0.850  0.2039E+01  0.8182E+01
  -0.840  0.2296E+01  0.8204E+01
  -0.830  0.2461E+01  0.8227E+01
  -0.820  0.2320E+01  0.8251E+01
  -0.810  0.2360E+01  0.8274E+01
  -0.800  0.2378E+01  0.8298E+01
  -0.790  0.2472E+01  0.8322E+01
  -0.780  0.2478E+01  0.8347E+01
  -0.770  0.2504E+01  0.8372E+01
  -0.760  0.2519E+01  0.8397E+01
  -0.750  0.2507E+01  0.8422E+01
  -0.740  0.2538E+01  0.8447E+01
  -0.730  0.2607E+01  0.8473E+01
  -0.720  0.2676E+01  0.8499E+01
  -0.710  0.2692E+01  0.8526E+01
  -0.700  0.2675E+01  0.8553E+01
  -0.690  0.2667E+01  0.8580E+01
  -0.680  0.2686E+01  0.8607E+01
  -0.670  0.2726E+01  0.8634E+01
  -0.660  0.2765E+01  0.8661E+01
  -0.650  0.2769E+01  0.8689E+01
  -0.640  0.2754E+01  0.8716E+01
  -0.630  0.2755E+01  0.8744E+01
  -0.620  0.2845E+01  0.8772E+01
  -0.610  0.3065E+01  0.8801E+01
  -0.600  0.3272E+01  0.8833E+01
  -0.590  0.3641E+01  0.8868E+01
  -0.580  0.3597E+01  0.8904E+01
  -0.570  0.3635E+01  0.8940E+01
  -0.560  0.3603E+01  0.8977E+01
  -0.550  0.3784E+01  0.9013E+01
  -0.540  0.4243E+01  0.9054E+01
  -0.530  0.4458E+01  0.9097E+01
  -0.520  0.4472E+01  0.9142E+01
  -0.510  0.4473E+01  0.9187E+01
  -0.500  0.4499E+01  0.9232E+01
  -0.490  0.4504E+01  0.9277E+01
  -0.480  0.4607E+01  0.9322E+01
  -0.470  0.4625E+01  0.9369E+01
  -0.460  0.4614E+01  0.9415E+01
  -0.450  0.4605E+01  0.9461E+01
  -0.440  0.4622E+01  0.9507E+01
  -0.430  0.4667E+01  0.9554E+01
  -0.420  0.4711E+01  0.9601E+01
  -0.410  0.4773E+01  0.9648E+01
  -0.400  0.4789E+01  0.9696E+01
  -0.390  0.4791E+01  0.9744E+01
  -0.380  0.4793E+01  0.9792E+01
  -0.370  0.4822E+01  0.9840E+01
  -0.360  0.4891E+01  0.9888E+01
  -0.350  0.4941E+01  0.9938E+01
  -0.340  0.4985E+01  0.9987E+01
  -0.330  0.5005E+01  0.1004E+02
  -0.320  0.5027E+01  0.1009E+02
  -0.310  0.5081E+01  0.1014E+02
  -0.300  0.5152E+01  0.1019E+02
  -0.290  0.5172E+01  0.1024E+02
  -0.280  0.5200E+01  0.1029E+02
  -0.270  0.5255E+01  0.1034E+02
  -0.260  0.5344E+01  0.1040E+02
  -0.250  0.5426E+01  0.1045E+02
  -0.240  0.5486E+01  0.1051E+02
  -0.230  0.5563E+01  0.1056E+02
  -0.220  0.5667E+01  0.1062E+02
  -0.210  0.5749E+01  0.1067E+02
  -0.200  0.5810E+01  0.1073E+02
  -0.190  0.5944E+01  0.1079E+02
  -0.180  0.6132E+01  0.1085E+02
  -0.170  0.6318E+01  0.1091E+02
  -0.160  0.6728E+01  0.1098E+02
  -0.150  0.7211E+01  0.1105E+02
  -0.140  0.7299E+01  0.1112E+02
  -0.130  0.7405E+01  0.1120E+02
  -0.120  0.6955E+01  0.1127E+02
  -0.110  0.6547E+01  0.1134E+02
  -0.100  0.6398E+01  0.1140E+02
  -0.090  0.6252E+01  0.1146E+02
  -0.080  0.6197E+01  0.1153E+02
  -0.070  0.6152E+01  0.1159E+02
  -0.060  0.6032E+01  0.1165E+02
  -0.050  0.6011E+01  0.1171E+02
  -0.040  0.6052E+01  0.1177E+02
  -0.030  0.6081E+01  0.1183E+02
  -0.020  0.6039E+01  0.1189E+02
  -0.010  0.6021E+01  0.1195E+02
   0.000  0.5891E+01  0.1201E+02
   0.010  0.5725E+01  0.1207E+02
   0.020  0.5829E+01  0.1212E+02
   0.030  0.5998E+01  0.1218E+02
   0.040  0.6226E+01  0.1224E+02
   0.050  0.6484E+01  0.1231E+02
   0.060  0.6748E+01  0.1237E+02
   0.070  0.6757E+01  0.1244E+02
   0.080  0.6705E+01  0.1251E+02
   0.090  0.6633E+01  0.1258E+02
   0.100  0.6568E+01  0.1264E+02
   0.110  0.6658E+01  0.1271E+02
   0.120  0.6921E+01  0.1278E+02
   0.130  0.7398E+01  0.1285E+02
   0.140  0.7460E+01  0.1292E+02
   0.150  0.7713E+01  0.1300E+02
   0.160  0.8006E+01  0.1308E+02
   0.170  0.8071E+01  0.1316E+02
   0.180  0.7822E+01  0.1324E+02
   0.190  0.6961E+01  0.1331E+02
   0.200  0.6367E+01  0.1338E+02
   0.210  0.5944E+01  0.1344E+02
   0.220  0.5764E+01  0.1350E+02
   0.230  0.4878E+01  0.1355E+02
   0.240  0.4545E+01  0.1360E+02
   0.250  0.4035E+01  0.1364E+02
   0.260  0.2799E+01  0.1368E+02
   0.270  0.2196E+01  0.1370E+02
   0.280  0.2027E+01  0.1372E+02
   0.290  0.1912E+01  0.1374E+02
   0.300  0.1701E+01  0.1376E+02
   0.310  0.1388E+01  0.1378E+02
   0.320  0.1362E+01  0.1379E+02
   0.330  0.1338E+01  0.1380E+02
   0.340  0.1319E+01  0.1382E+02
   0.350  0.1302E+01  0.1383E+02
   0.360  0.1284E+01  0.1384E+02
   0.370  0.1264E+01  0.1385E+02
   0.380  0.1247E+01  0.1387E+02
   0.390  0.1229E+01  0.1388E+02
   0.400  0.1214E+01  0.1389E+02
   0.410  0.1201E+01  0.1390E+02
   0.420  0.1188E+01  0.1392E+02
   0.430  0.1174E+01  0.1393E+02
   0.440  0.1160E+01  0.1394E+02
   0.450  0.1144E+01  0.1395E+02
   0.460  0.1130E+01  0.1396E+02
   0.470  0.1119E+01  0.1397E+02
   0.480  0.1110E+01  0.1398E+02
   0.490  0.1101E+01  0.1400E+02
   0.500  0.1091E+01  0.1401E+02
   0.510  0.1082E+01  0.1402E+02
   0.520  0.1072E+01  0.1403E+02
   0.530  0.1061E+01  0.1404E+02
   0.540  0.1058E+01  0.1405E+02
   0.550  0.1058E+01  0.1406E+02
   0.560  0.1060E+01  0.1407E+02
   0.570  0.1063E+01  0.1408E+02
   0.580  0.1066E+01  0.1409E+02
   0.590  0.1072E+01  0.1410E+02
   0.600  0.1078E+01  0.1411E+02
   0.610  0.1083E+01  0.1412E+02
   0.620  0.1086E+01  0.1414E+02
   0.630  0.1090E+01  0.1415E+02
   0.640  0.1092E+01  0.1416E+02
   0.650  0.1096E+01  0.1417E+02
   0.660  0.1101E+01  0.1418E+02
   0.670  0.1106E+01  0.1419E+02
   0.680  0.1110E+01  0.1420E+02
   0.690  0.1116E+01  0.1421E+02
   0.700  0.1123E+01  0.1422E+02
   0.710  0.1129E+01  0.1423E+02
   0.720  0.1136E+01  0.1425E+02
   0.730  0.1143E+01  0.1426E+02
   0.740  0.1149E+01  0.1427E+02
   0.750  0.1155E+01  0.1428E+02
   0.760  0.1161E+01  0.1429E+02
   0.770  0.1168E+01  0.1430E+02
   0.780  0.1175E+01  0.1432E+02
   0.790  0.1183E+01  0.1433E+02
   0.800  0.1192E+01  0.1434E+02
   0.810  0.1200E+01  0.1435E+02
   0.820  0.1207E+01  0.1436E+02
   0.830  0.1215E+01  0.1437E+02
   0.840  0.1359E+01  0.1439E+02
   0.850  0.1568E+01  0.1440E+02
   0.860  0.1529E+01  0.1442E+02
   0.870  0.1537E+01  0.1443E+02
   0.880  0.1643E+01  0.1445E+02
   0.890  0.1684E+01  0.1447E+02
   0.900  0.1691E+01  0.1448E+02
   0.910  0.1683E+01  0.1450E+02
   0.920  0.1668E+01  0.1452E+02
   0.930  0.1686E+01  0.1453E+02
   0.940  0.1708E+01  0.1455E+02
   0.950  0.1688E+01  0.1457E+02
   0.960  0.1681E+01  0.1458E+02
   0.970  0.1686E+01  0.1460E+02
   0.980  0.1686E+01  0.1462E+02
   0.990  0.1694E+01  0.1463E+02
   1.000  0.1713E+01  0.1465E+02
   1.010  0.1717E+01  0.1467E+02
   1.020  0.1706E+01  0.1469E+02
   1.030  0.1700E+01  0.1470E+02
   1.040  0.1832E+01  0.1472E+02
   1.050  0.1849E+01  0.1474E+02
   1.060  0.1857E+01  0.1476E+02
   1.070  0.1938E+01  0.1478E+02
   1.080  0.1971E+01  0.1480E+02
   1.090  0.1999E+01  0.1482E+02
   1.100  0.2023E+01  0.1484E+02
   1.110  0.2022E+01  0.1486E+02
   1.120  0.2030E+01  0.1488E+02
   1.130  0.2109E+01  0.1490E+02
   1.140  0.2227E+01  0.1492E+02
   1.150  0.2319E+01  0.1494E+02
   1.160  0.2403E+01  0.1497E+02
   1.170  0.2512E+01  0.1499E+02
   1.180  0.2626E+01  0.1502E+02
   1.190  0.2736E+01  0.1504E+02
   1.200  0.3036E+01  0.1507E+02
   1.210  0.3172E+01  0.1510E+02
   1.220  0.3349E+01  0.1513E+02
   1.230  0.3294E+01  0.1517E+02
   1.240  0.3321E+01  0.1520E+02
   1.250  0.3372E+01  0.1523E+02
   1.260  0.3495E+01  0.1527E+02
   1.270  0.3449E+01  0.1530E+02
   1.280  0.3481E+01  0.1534E+02
   1.290  0.3516E+01  0.1537E+02
   1.300  0.3570E+01  0.1541E+02
   1.310  0.3703E+01  0.1544E+02
   1.320  0.3748E+01  0.1548E+02
   1.330  0.3733E+01  0.1552E+02
   1.340  0.3792E+01  0.1556E+02
   1.350  0.3899E+01  0.1560E+02
   1.360  0.4057E+01  0.1564E+02
   1.370  0.4164E+01  0.1568E+02
   1.380  0.4291E+01  0.1572E+02
   1.390  0.4405E+01  0.1576E+02
   1.400  0.4506E+01  0.1581E+02
   1.410  0.4580E+01  0.1585E+02
   1.420  0.4816E+01  0.1590E+02
   1.430  0.5185E+01  0.1595E+02
   1.440  0.5437E+01  0.1600E+02
   1.450  0.5498E+01  0.1606E+02
   1.460  0.5482E+01  0.1611E+02
   1.470  0.5297E+01  0.1617E+02
   1.480  0.5314E+01  0.1622E+02
   1.490  0.4823E+01  0.1627E+02
   1.500  0.4831E+01  0.1632E+02
   1.510  0.4672E+01  0.1637E+02
   1.520  0.4493E+01  0.1641E+02
   1.530  0.4242E+01  0.1645E+02
   1.540  0.3964E+01  0.1650E+02
   1.550  0.3928E+01  0.1654E+02
   1.560  0.3985E+01  0.1657E+02
   1.570  0.4061E+01  0.1661E+02
   1.580  0.4122E+01  0.1666E+02
   1.590  0.4163E+01  0.1670E+02
   1.600  0.4292E+01  0.1674E+02
   1.610  0.4344E+01  0.1678E+02
   1.620  0.4428E+01  0.1683E+02
   1.630  0.4665E+01  0.1687E+02
   1.640  0.4700E+01  0.1692E+02
   1.650  0.4760E+01  0.1697E+02
   1.660  0.4726E+01  0.1701E+02
   1.670  0.4786E+01  0.1706E+02
   1.680  0.4839E+01  0.1711E+02
   1.690  0.4904E+01  0.1716E+02
   1.700  0.4952E+01  0.1721E+02
   1.710  0.5004E+01  0.1726E+02
   1.720  0.5066E+01  0.1731E+02
   1.730  0.5132E+01  0.1736E+02
   1.740  0.5207E+01  0.1741E+02
   1.750  0.5302E+01  0.1746E+02
   1.760  0.5399E+01  0.1752E+02
   1.770  0.5518E+01  0.1757E+02
   1.780  0.5662E+01  0.1763E+02
   1.790  0.6018E+01  0.1768E+02
   1.800  0.6387E+01  0.1775E+02
   1.810  0.6945E+01  0.1781E+02
   1.820  0.6047E+01  0.1787E+02
   1.830  0.5864E+01  0.1793E+02
   1.840  0.5159E+01  0.1799E+02
   1.850  0.5059E+01  0.1804E+02
   1.860  0.4983E+01  0.1809E+02
   1.870  0.4941E+01  0.1814E+02
   1.880  0.4753E+01  0.1819E+02
   1.890  0.4662E+01  0.1823E+02
   1.900  0.4624E+01  0.1828E+02
   1.910  0.4586E+01  0.1833E+02
   1.920  0.4547E+01  0.1837E+02
   1.930  0.4482E+01  0.1842E+02
   1.940  0.4481E+01  0.1846E+02
   1.950  0.4498E+01  0.1851E+02
   1.960  0.4534E+01  0.1855E+02
   1.970  0.4584E+01  0.1860E+02
   1.980  0.4702E+01  0.1864E+02
   1.990  0.4753E+01  0.1869E+02
   2.000  0.4691E+01  0.1874E+02
   2.010  0.4689E+01  0.1878E+02
   2.020  0.4638E+01  0.1883E+02
   2.030  0.4511E+01  0.1888E+02
   2.040  0.4467E+01  0.1892E+02
   2.050  0.4424E+01  0.1897E+02
   2.060  0.4337E+01  0.1901E+02
   2.070  0.4280E+01  0.1905E+02
   2.080  0.4273E+01  0.1910E+02
   2.090  0.4317E+01  0.1914E+02
   2.100  0.4387E+01  0.1918E+02
   2.110  0.4429E+01  0.1923E+02
   2.120  0.4428E+01  0.1927E+02
   2.130  0.4481E+01  0.1932E+02
   2.140  0.4405E+01  0.1936E+02
   2.150  0.4432E+01  0.1940E+02
   2.160  0.4474E+01  0.1945E+02
   2.170  0.4312E+01  0.1949E+02
   2.180  0.4402E+01  0.1953E+02
   2.190  0.4653E+01  0.1958E+02
   2.200  0.4862E+01  0.1963E+02
   2.210  0.4597E+01  0.1967E+02
   2.220  0.4550E+01  0.1972E+02
   2.230  0.4443E+01  0.1977E+02
   2.240  0.4317E+01  0.1981E+02
   2.250  0.4381E+01  0.1985E+02
   2.260  0.4431E+01  0.1990E+02
   2.270  0.4610E+01  0.1994E+02
   2.280  0.4759E+01  0.1999E+02
   2.290  0.4812E+01  0.2004E+02
   2.300  0.5037E+01  0.2009E+02
   2.310  0.5102E+01  0.2014E+02
   2.320  0.5129E+01  0.2019E+02
   2.330  0.4742E+01  0.2024E+02
   2.340  0.4544E+01  0.2028E+02
   2.350  0.4439E+01  0.2033E+02
   2.360  0.4325E+01  0.2037E+02
   2.370  0.4236E+01  0.2041E+02
   2.380  0.4123E+01  0.2046E+02
   2.390  0.3938E+01  0.2050E+02
   2.400  0.3727E+01  0.2054E+02
   2.410  0.3688E+01  0.2057E+02
   2.420  0.3680E+01  0.2061E+02
   2.430  0.3694E+01  0.2065E+02
   2.440  0.3731E+01  0.2068E+02
   2.450  0.3782E+01  0.2072E+02
   2.460  0.3829E+01  0.2076E+02
   2.470  0.3867E+01  0.2080E+02
   2.480  0.3919E+01  0.2084E+02
   2.490  0.3972E+01  0.2088E+02
   2.500  0.4031E+01  0.2092E+02
   2.510  0.4123E+01  0.2096E+02
   2.520  0.4190E+01  0.2100E+02
   2.530  0.4278E+01  0.2104E+02
   2.540  0.4243E+01  0.2108E+02
   2.550  0.4257E+01  0.2113E+02
   2.560  0.4267E+01  0.2117E+02
   2.570  0.4215E+01  0.2121E+02
   2.580  0.4033E+01  0.2125E+02
   2.590  0.3993E+01  0.2129E+02
   2.600  0.3936E+01  0.2133E+02
   2.610  0.4349E+01  0.2137E+02
   2.620  0.4539E+01  0.2142E+02
   2.630  0.4694E+01  0.2146E+02
   2.640  0.4761E+01  0.2151E+02
   2.650  0.4792E+01  0.2156E+02
   2.660  0.4911E+01  0.2161E+02
   2.670  0.4998E+01  0.2166E+02
   2.680  0.5210E+01  0.2171E+02
   2.690  0.5289E+01  0.2176E+02
   2.700  0.5694E+01  0.2181E+02
   2.710  0.5736E+01  0.2187E+02
   2.720  0.5855E+01  0.2193E+02
   2.730  0.5925E+01  0.2199E+02
   2.740  0.5930E+01  0.2205E+02
   2.750  0.5987E+01  0.2211E+02
   2.760  0.6022E+01  0.2217E+02
   2.770  0.6121E+01  0.2223E+02
   2.780  0.6297E+01  0.2229E+02
   2.790  0.6370E+01  0.2235E+02
   2.800  0.6462E+01  0.2242E+02
   2.810  0.6597E+01  0.2248E+02
   2.820  0.6698E+01  0.2255E+02
   2.830  0.6826E+01  0.2262E+02
   2.840  0.6882E+01  0.2269E+02
   2.850  0.6910E+01  0.2276E+02
   2.860  0.7078E+01  0.2282E+02
   2.870  0.7098E+01  0.2290E+02
   2.880  0.6970E+01  0.2297E+02
   2.890  0.6877E+01  0.2304E+02
   2.900  0.6812E+01  0.2310E+02
   2.910  0.7003E+01  0.2317E+02
   2.920  0.6907E+01  0.2324E+02
   2.930  0.6540E+01  0.2331E+02
   2.940  0.6136E+01  0.2337E+02
   2.950  0.5695E+01  0.2343E+02
   2.960  0.5662E+01  0.2349E+02
   2.970  0.5756E+01  0.2355E+02
   2.980  0.5770E+01  0.2361E+02
   2.990  0.4865E+01  0.2366E+02
   3.000  0.4551E+01  0.2371E+02
   3.010  0.4577E+01  0.2375E+02
   3.020  0.4738E+01  0.2380E+02
   3.030  0.4605E+01  0.2384E+02
   3.040  0.4588E+01  0.2389E+02
   3.050  0.4587E+01  0.2394E+02
   3.060  0.4615E+01  0.2398E+02
   3.070  0.4656E+01  0.2403E+02
   3.080  0.4697E+01  0.2408E+02
   3.090  0.4801E+01  0.2412E+02
   3.100  0.4900E+01  0.2417E+02
   3.110  0.5114E+01  0.2422E+02
   3.120  0.5218E+01  0.2427E+02
   3.130  0.5232E+01  0.2433E+02
   3.140  0.5349E+01  0.2438E+02
   3.150  0.5450E+01  0.2443E+02
   3.160  0.5629E+01  0.2449E+02
   3.170  0.5944E+01  0.2455E+02
   3.180  0.6268E+01  0.2461E+02
   3.190  0.6405E+01  0.2467E+02
   3.200  0.6929E+01  0.2474E+02
   3.210  0.5794E+01  0.2481E+02
   3.220  0.5695E+01  0.2487E+02
   3.230  0.5574E+01  0.2492E+02
   3.240  0.5513E+01  0.2498E+02
   3.250  0.5468E+01  0.2503E+02
   3.260  0.5411E+01  0.2509E+02
   3.270  0.5363E+01  0.2514E+02
   3.280  0.5330E+01  0.2520E+02
   3.290  0.5254E+01  0.2525E+02
   3.300  0.5143E+01  0.2530E+02
   3.310  0.5010E+01  0.2535E+02
   3.320  0.4739E+01  0.2540E+02
   3.330  0.4801E+01  0.2545E+02
   3.340  0.4896E+01  0.2550E+02
   3.350  0.5020E+01  0.2555E+02
   3.360  0.5213E+01  0.2560E+02
   3.370  0.5680E+01  0.2565E+02
   3.380  0.6762E+01  0.2572E+02
   3.390  0.6023E+01  0.2578E+02
   3.400  0.6233E+01  0.2584E+02
   3.410  0.6485E+01  0.2590E+02
   3.420  0.7161E+01  0.2597E+02
   3.430  0.8561E+01  0.2605E+02
   3.440  0.8539E+01  0.2614E+02
   3.450  0.7114E+01  0.2622E+02
   3.460  0.6869E+01  0.2629E+02
   3.470  0.6205E+01  0.2636E+02
   3.480  0.5622E+01  0.2642E+02
   3.490  0.4908E+01  0.2647E+02
   3.500  0.4122E+01  0.2651E+02
   3.510  0.3569E+01  0.2655E+02
   3.520  0.3437E+01  0.2659E+02
   3.530  0.3450E+01  0.2662E+02
   3.540  0.3470E+01  0.2665E+02
   3.550  0.3503E+01  0.2669E+02
   3.560  0.3543E+01  0.2672E+02
   3.570  0.3590E+01  0.2676E+02
   3.580  0.3650E+01  0.2680E+02
   3.590  0.3743E+01  0.2683E+02
   3.600  0.3750E+01  0.2687E+02
   3.610  0.3758E+01  0.2691E+02
   3.620  0.3770E+01  0.2695E+02
   3.630  0.3790E+01  0.2698E+02
   3.640  0.3809E+01  0.2702E+02
   3.650  0.3826E+01  0.2706E+02
   3.660  0.3844E+01  0.2710E+02
   3.670  0.3867E+01  0.2714E+02
   3.680  0.3896E+01  0.2718E+02
   3.690  0.3926E+01  0.2722E+02
   3.700  0.3955E+01  0.2725E+02
   3.710  0.3980E+01  0.2729E+02
   3.720  0.4008E+01  0.2733E+02
   3.730  0.4040E+01  0.2737E+02
   3.740  0.4095E+01  0.2741E+02
   3.750  0.4163E+01  0.2746E+02
   3.760  0.4219E+01  0.2750E+02
   3.770  0.4277E+01  0.2754E+02
   3.780  0.4362E+01  0.2758E+02
   3.790  0.4456E+01  0.2763E+02
   3.800  0.4601E+01  0.2767E+02
   3.810  0.4770E+01  0.2772E+02
   3.820  0.4886E+01  0.2777E+02
   3.830  0.5078E+01  0.2782E+02
   3.840  0.5127E+01  0.2787E+02
   3.850  0.5067E+01  0.2792E+02
   3.860  0.5057E+01  0.2797E+02
   3.870  0.5055E+01  0.2802E+02
   3.880  0.5011E+01  0.2807E+02
   3.890  0.4822E+01  0.2812E+02
   3.900  0.4707E+01  0.2817E+02
   3.910  0.4725E+01  0.2822E+02
   3.920  0.4768E+01  0.2826E+02
   3.930  0.4787E+01  0.2831E+02
   3.940  0.4834E+01  0.2836E+02
   3.950  0.4897E+01  0.2841E+02
   3.960  0.5519E+01  0.2846E+02
   3.970  0.6725E+01  0.2852E+02
   3.980  0.4678E+01  0.2858E+02
   3.990  0.4575E+01  0.2862E+02
   4.000  0.4566E+01  0.2867E+02
   4.010  0.4548E+01  0.2871E+02
   4.020  0.4390E+01  0.2876E+02
   4.030  0.4103E+01  0.2880E+02
   4.040  0.3931E+01  0.2884E+02
   4.050  0.3901E+01  0.2888E+02
   4.060  0.3851E+01  0.2892E+02
   4.070  0.3703E+01  0.2896E+02
   4.080  0.3618E+01  0.2899E+02
   4.090  0.3737E+01  0.2903E+02
   4.100  0.3578E+01  0.2907E+02
   4.110  0.3536E+01  0.2910E+02
   4.120  0.3429E+01  0.2914E+02
   4.130  0.3387E+01  0.2917E+02
   4.140  0.3472E+01  0.2921E+02
   4.150  0.3615E+01  0.2924E+02
   4.160  0.3769E+01  0.2928E+02
   4.170  0.3868E+01  0.2932E+02
   4.180  0.4122E+01  0.2936E+02
   4.190  0.4610E+01  0.2940E+02
   4.200  0.4615E+01  0.2945E+02
   4.210  0.4644E+01  0.2949E+02
   4.220  0.4633E+01  0.2954E+02
   4.230  0.4720E+01  0.2959E+02
   4.240  0.4725E+01  0.2963E+02
   4.250  0.4709E+01  0.2968E+02
   4.260  0.4750E+01  0.2973E+02
   4.270  0.4835E+01  0.2977E+02
   4.280  0.5505E+01  0.2983E+02
   4.290  0.5341E+01  0.2988E+02
   4.300  0.5540E+01  0.2993E+02
   4.310  0.5485E+01  0.2999E+02
   4.320  0.5467E+01  0.3004E+02
   4.330  0.5466E+01  0.3010E+02
   4.340  0.5522E+01  0.3015E+02
   4.350  0.5654E+01  0.3021E+02
   4.360  0.5545E+01  0.3027E+02
   4.370  0.5552E+01  0.3032E+02
   4.380  0.5599E+01  0.3038E+02
   4.390  0.5647E+01  0.3043E+02
   4.400  0.6579E+01  0.3049E+02
   4.410  0.6938E+01  0.3056E+02
   4.420  0.6416E+01  0.3063E+02
   4.430  0.6264E+01  0.3069E+02
   4.440  0.5932E+01  0.3076E+02
   4.450  0.5776E+01  0.3081E+02
   4.460  0.5812E+01  0.3087E+02
   4.470  0.5708E+01  0.3093E+02
   4.480  0.5741E+01  0.3099E+02
   4.490  0.5838E+01  0.3104E+02
   4.500  0.5860E+01  0.3110E+02
   4.510  0.5805E+01  0.3116E+02
   4.520  0.5949E+01  0.3122E+02
   4.530  0.6066E+01  0.3128E+02
   4.540  0.6231E+01  0.3134E+02
   4.550  0.6503E+01  0.3141E+02
   4.560  0.6771E+01  0.3147E+02
   4.570  0.7007E+01  0.3154E+02
   4.580  0.7186E+01  0.3161E+02
   4.590  0.7468E+01  0.3168E+02
   4.600  0.7781E+01  0.3176E+02
   4.610  0.8289E+01  0.3184E+02
   4.620  0.8662E+01  0.3193E+02
   4.630  0.9267E+01  0.3202E+02
   4.640  0.9460E+01  0.3212E+02
   4.650  0.9505E+01  0.3221E+02
   4.660  0.9651E+01  0.3231E+02
   4.670  0.1073E+02  0.3241E+02
   4.680  0.9648E+01  0.3251E+02
   4.690  0.8572E+01  0.3260E+02
   4.700  0.8824E+01  0.3269E+02
   4.710  0.9216E+01  0.3278E+02
   4.720  0.1105E+02  0.3288E+02
   4.730  0.9147E+01  0.3297E+02
   4.740  0.8308E+01  0.3306E+02
   4.750  0.7948E+01  0.3314E+02
   4.760  0.7777E+01  0.3322E+02
   4.770  0.7457E+01  0.3330E+02
   4.780  0.7362E+01  0.3337E+02
   4.790  0.7224E+01  0.3344E+02
   4.800  0.7206E+01  0.3352E+02
   4.810  0.7081E+01  0.3359E+02
   4.820  0.8498E+01  0.3366E+02
   4.830  0.8369E+01  0.3375E+02
   4.840  0.7696E+01  0.3383E+02
   4.850  0.7173E+01  0.3390E+02
   4.860  0.6455E+01  0.3397E+02
   4.870  0.5602E+01  0.3403E+02
   4.880  0.4897E+01  0.3409E+02
   4.890  0.4743E+01  0.3413E+02
   4.900  0.4839E+01  0.3418E+02
   4.910  0.5471E+01  0.3423E+02
   4.920  0.5990E+01  0.3429E+02
   4.930  0.5543E+01  0.3434E+02
   4.940  0.5623E+01  0.3440E+02
   4.950  0.5778E+01  0.3446E+02
   4.960  0.6029E+01  0.3452E+02
   4.970  0.6437E+01  0.3458E+02
   4.980  0.7389E+01  0.3465E+02
   4.990  0.7508E+01  0.3472E+02
   5.000  0.7489E+01  0.3480E+02
   5.010  0.7457E+01  0.3487E+02
   5.020  0.7617E+01  0.3495E+02
   5.030  0.5610E+01  0.3502E+02
   5.040  0.5348E+01  0.3507E+02
   5.050  0.5176E+01  0.3512E+02
   5.060  0.5016E+01  0.3518E+02
   5.070  0.4931E+01  0.3523E+02
   5.080  0.4935E+01  0.3527E+02
   5.090  0.4882E+01  0.3532E+02
   5.100  0.4334E+01  0.3537E+02
   5.110  0.3955E+01  0.3541E+02
   5.120  0.3655E+01  0.3545E+02
   5.130  0.3330E+01  0.3548E+02
   5.140  0.2971E+01  0.3552E+02
   5.150  0.2495E+01  0.3554E+02
   5.160  0.2098E+01  0.3557E+02
   5.170  0.1954E+01  0.3559E+02
   5.180  0.1918E+01  0.3561E+02
   5.190  0.1890E+01  0.3563E+02
   5.200  0.1872E+01  0.3564E+02
   5.210  0.1882E+01  0.3566E+02
   5.220  0.1899E+01  0.3568E+02
   5.230  0.1877E+01  0.3570E+02
   5.240  0.1881E+01  0.3572E+02
   5.250  0.1854E+01  0.3574E+02
   5.260  0.1879E+01  0.3576E+02
   5.270  0.1855E+01  0.3578E+02
   5.280  0.1852E+01  0.3579E+02
   5.290  0.1819E+01  0.3581E+02
   5.300  0.1798E+01  0.3583E+02
   5.310  0.1812E+01  0.3585E+02
   5.320  0.1871E+01  0.3587E+02
   5.330  0.1765E+01  0.3589E+02
   5.340  0.1723E+01  0.3590E+02
   5.350  0.1562E+01  0.3592E+02
   5.360  0.1246E+01  0.3593E+02
   5.370  0.1188E+01  0.3594E+02
   5.380  0.9981E+00  0.3596E+02
   5.390  0.1013E+01  0.3597E+02
   5.400  0.8832E+00  0.3598E+02
   5.410  0.7625E+00  0.3598E+02
   5.420  0.6683E+00  0.3599E+02
   5.430  0.3442E+00  0.3600E+02
   5.440  0.1990E+00  0.3600E+02
   5.450  0.0000E+00  0.3600E+02
   5.460  0.0000E+00  0.3600E+02
   5.470  0.0000E+00  0.3600E+02
   5.480  0.0000E+00  0.3600E+02
   5.490  0.0000E+00  0.3600E+02
   5.500  0.0000E+00  0.3600E+02
   5.510  0.0000E+00  0.3600E+02
   5.520  0.0000E+00  0.3600E+02
   5.530  0.0000E+00  0.3600E+02
   5.540  0.0000E+00  0.3600E+02
   5.550  0.0000E+00  0.3600E+02
   5.560  0.0000E+00  0.3600E+02
   5.570  0.0000E+00  0.3600E+02
   5.580  0.0000E+00  0.3600E+02
   5.590  0.0000E+00  0.3600E+02
   5.600  0.0000E+00  0.3600E+02
   5.610  0.0000E+00  0.3600E+02
   5.620  0.0000E+00  0.3600E+02
   5.630  0.0000E+00  0.3600E+02
   5.640  0.0000E+00  0.3600E+02
   5.650  0.0000E+00  0.3600E+02
   5.660  0.0000E+00  0.3600E+02
   5.670  0.0000E+00  0.3600E+02
   5.680  0.0000E+00  0.3600E+02
   5.690  0.0000E+00  0.3600E+02
   5.700  0.0000E+00  0.3600E+02
   5.710  0.0000E+00  0.3600E+02
   5.720  0.0000E+00  0.3600E+02
   5.730  0.0000E+00  0.3600E+02
   5.740  0.0000E+00  0.3600E+02
   5.750  0.0000E+00  0.3600E+02
   5.760  0.0000E+00  0.3600E+02
   5.770  0.0000E+00  0.3600E+02
   5.780  0.0000E+00  0.3600E+02
   5.790  0.0000E+00  0.3600E+02
   5.800  0.0000E+00  0.3600E+02
   5.810  0.0000E+00  0.3600E+02
   5.820  0.0000E+00  0.3600E+02
   5.830  0.0000E+00  0.3600E+02
   5.840  0.0000E+00  0.3600E+02
   5.850  0.0000E+00  0.3600E+02
   5.860  0.0000E+00  0.3600E+02
   5.870  0.0000E+00  0.3600E+02
   5.880  0.0000E+00  0.3600E+02
   5.890  0.0000E+00  0.3600E+02
   5.900  0.0000E+00  0.3600E+02
   5.910  0.0000E+00  0.3600E+02
   5.920  0.0000E+00  0.3600E+02
   5.930  0.0000E+00  0.3600E+02
   5.940  0.0000E+00  0.3600E+02
   5.950  0.0000E+00  0.3600E+02
   5.960  0.0000E+00  0.3600E+02
   5.970  0.0000E+00  0.3600E+02
   5.980  0.0000E+00  0.3600E+02
   5.990  0.0000E+00  0.3600E+02
   6.000  0.0000E+00  0.3600E+02
   6.010  0.0000E+00  0.3600E+02
   6.020  0.0000E+00  0.3600E+02
   6.030  0.0000E+00  0.3600E+02
   6.040  0.0000E+00  0.3600E+02
   6.050  0.0000E+00  0.3600E+02
   6.060  0.0000E+00  0.3600E+02
   6.070  0.0000E+00  0.3600E+02
   6.080  0.0000E+00  0.3600E+02
   6.090  0.0000E+00  0.3600E+02
   6.100  0.0000E+00  0.3600E+02
   6.110  0.0000E+00  0.3600E+02
   6.120  0.0000E+00  0.3600E+02
   6.130  0.0000E+00  0.3600E+02
   6.140  0.0000E+00  0.3600E+02
   6.150  0.0000E+00  0.3600E+02
   6.160  0.0000E+00  0.3600E+02
   6.170  0.0000E+00  0.3600E+02
   6.180  0.0000E+00  0.3600E+02
   6.190  0.0000E+00  0.3600E+02
   6.200  0.0000E+00  0.3600E+02
   6.210  0.0000E+00  0.3600E+02
   6.220  0.0000E+00  0.3600E+02
   6.230  0.0000E+00  0.3600E+02
   6.240  0.0000E+00  0.3600E+02
   6.250  0.0000E+00  0.3600E+02
   6.260  0.0000E+00  0.3600E+02
   6.270  0.0000E+00  0.3600E+02
   6.280  0.0000E+00  0.3600E+02
   6.290  0.0000E+00  0.3600E+02
   6.300  0.0000E+00  0.3600E+02
   6.310  0.0000E+00  0.3600E+02
   6.320  0.0000E+00  0.3600E+02
   6.330  0.0000E+00  0.3600E+02
   6.340  0.0000E+00  0.3600E+02
   6.350  0.0000E+00  0.3600E+02
   6.360  0.0000E+00  0.3600E+02
   6.370  0.0000E+00  0.3600E+02
   6.380  0.0000E+00  0.3600E+02
   6.390  0.0000E+00  0.3600E+02
   6.400  0.0000E+00  0.3600E+02
   6.410  0.0000E+00  0.3600E+02
   6.420  0.0000E+00  0.3600E+02
   6.430  0.0000E+00  0.3600E+02
   6.440  0.0000E+00  0.3600E+02
   6.450  0.0000E+00  0.3600E+02
   6.460  0.0000E+00  0.3600E+02
   6.470  0.0000E+00  0.3600E+02
   6.480  0.0000E+00  0.3600E+02
   6.490  0.0000E+00  0.3600E+02
   6.500  0.0000E+00  0.3600E+02
   6.510  0.0000E+00  0.3600E+02
   6.520  0.0000E+00  0.3600E+02
   6.530  0.0000E+00  0.3600E+02
   6.540  0.0000E+00  0.3600E+02
   6.550  0.0000E+00  0.3600E+02
   6.560  0.0000E+00  0.3600E+02
   6.570  0.0000E+00  0.3600E+02
   6.580  0.0000E+00  0.3600E+02
   6.590  0.0000E+00  0.3600E+02
   6.600  0.0000E+00  0.3600E+02
   6.610  0.0000E+00  0.3600E+02
   6.620  0.0000E+00  0.3600E+02
   6.630  0.0000E+00  0.3600E+02
   6.640  0.0000E+00  0.3600E+02
   6.650  0.0000E+00  0.3600E+02
   6.660  0.0000E+00  0.3600E+02
   6.670  0.0000E+00  0.3600E+02
   6.680  0.0000E+00  0.3600E+02
   6.690  0.0000E+00  0.3600E+02
   6.700  0.0000E+00  0.3600E+02
   6.710  0.0000E+00  0.3600E+02
   6.720  0.0000E+00  0.3600E+02
   6.730  0.0000E+00  0.3600E+02
   6.740  0.0000E+00  0.3600E+02
   6.750  0.0000E+00  0.3600E+02
   6.760  0.0000E+00  0.3600E+02
   6.770  0.0000E+00  0.3600E+02
   6.780  0.0000E+00  0.3600E+02
   6.790  0.0000E+00  0.3600E+02
   6.800  0.0000E+00  0.3600E+02
   6.810  0.0000E+00  0.3600E+02
   6.820  0.0000E+00  0.3600E+02
   6.830  0.0000E+00  0.3600E+02
   6.840  0.0000E+00  0.3600E+02
   6.850  0.0000E+00  0.3600E+02
   6.860  0.0000E+00  0.3600E+02
   6.870  0.4000E+00  0.3600E+02
   6.880  0.4052E+00  0.3601E+02
   6.890  0.4088E+00  0.3601E+02
   6.900  0.3600E+00  0.3601E+02
   6.910  0.5567E+00  0.3602E+02
   6.920  0.5767E+00  0.3602E+02
   6.930  0.5812E+00  0.3603E+02
   6.940  0.6363E+00  0.3604E+02
   6.950  0.6811E+00  0.3604E+02
   6.960  0.5970E+00  0.3605E+02
   6.970  0.6230E+00  0.3605E+02
   6.980  0.6404E+00  0.3606E+02
   6.990  0.7519E+00  0.3607E+02
   7.000  0.1018E+01  0.3608E+02
   7.010  0.1215E+01  0.3609E+02
   7.020  0.1408E+01  0.3610E+02
   7.030  0.1609E+01  0.3612E+02
   7.040  0.1669E+01  0.3613E+02
   7.050  0.1650E+01  0.3615E+02
   7.060  0.1633E+01  0.3617E+02
   7.070  0.1678E+01  0.3618E+02
   7.080  0.1669E+01  0.3620E+02
   7.090  0.1685E+01  0.3622E+02
   7.100  0.1716E+01  0.3623E+02
   7.110  0.1764E+01  0.3625E+02
   7.120  0.1800E+01  0.3627E+02
   7.130  0.1809E+01  0.3629E+02
   7.140  0.1826E+01  0.3631E+02
   7.150  0.1852E+01  0.3632E+02
   7.160  0.1900E+01  0.3634E+02
   7.170  0.1960E+01  0.3636E+02
   7.180  0.2022E+01  0.3638E+02
   7.190  0.2301E+01  0.3640E+02
   7.200  0.2421E+01  0.3643E+02
   7.210  0.2601E+01  0.3645E+02
   7.220  0.2786E+01  0.3648E+02
   7.230  0.2984E+01  0.3651E+02
   7.240  0.3162E+01  0.3654E+02
   7.250  0.3727E+01  0.3657E+02
   7.260  0.4118E+01  0.3661E+02
   7.270  0.3768E+01  0.3665E+02
   7.280  0.3593E+01  0.3669E+02
   7.290  0.3859E+01  0.3673E+02
   7.300  0.4084E+01  0.3677E+02
   7.310  0.3703E+01  0.3680E+02
   7.320  0.3548E+01  0.3684E+02
   7.330  0.3390E+01  0.3688E+02
   7.340  0.3148E+01  0.3691E+02
   7.350  0.2957E+01  0.3694E+02
   7.360  0.2764E+01  0.3697E+02
   7.370  0.2634E+01  0.3699E+02
   7.380  0.2535E+01  0.3702E+02
   7.390  0.2442E+01  0.3704E+02
   7.400  0.2352E+01  0.3707E+02
   7.410  0.2272E+01  0.3709E+02
   7.420  0.2205E+01  0.3711E+02
   7.430  0.2151E+01  0.3714E+02
   7.440  0.2099E+01  0.3716E+02
   7.450  0.2042E+01  0.3718E+02
   7.460  0.1994E+01  0.3720E+02
   7.470  0.1949E+01  0.3722E+02
   7.480  0.1910E+01  0.3724E+02
   7.490  0.1878E+01  0.3726E+02
   7.500  0.1841E+01  0.3727E+02
   7.510  0.1807E+01  0.3729E+02
   7.520  0.1773E+01  0.3731E+02
   7.530  0.1741E+01  0.3733E+02
   7.540  0.1708E+01  0.3735E+02
   7.550  0.1679E+01  0.3736E+02
   7.560  0.1650E+01  0.3738E+02
   7.570  0.1622E+01  0.3740E+02
   7.580  0.1597E+01  0.3741E+02
   7.590  0.1574E+01  0.3743E+02
   7.600  0.1550E+01  0.3744E+02
   7.610  0.1526E+01  0.3746E+02
   7.620  0.1505E+01  0.3747E+02
   7.630  0.1481E+01  0.3749E+02
   7.640  0.1465E+01  0.3750E+02
   7.650  0.1449E+01  0.3752E+02
   7.660  0.1434E+01  0.3753E+02
   7.670  0.1418E+01  0.3755E+02
   7.680  0.1401E+01  0.3756E+02
   7.690  0.1381E+01  0.3757E+02
   7.700  0.1359E+01  0.3759E+02
   7.710  0.1337E+01  0.3760E+02
   7.720  0.1325E+01  0.3762E+02
   7.730  0.1313E+01  0.3763E+02
   7.740  0.1299E+01  0.3764E+02
   7.750  0.1285E+01  0.3765E+02
   7.760  0.1271E+01  0.3767E+02
   7.770  0.1257E+01  0.3768E+02
   7.780  0.1244E+01  0.3769E+02
   7.790  0.1228E+01  0.3770E+02
   7.800  0.1215E+01  0.3772E+02
   7.810  0.1204E+01  0.3773E+02
   7.820  0.1194E+01  0.3774E+02
   7.830  0.1185E+01  0.3775E+02
   7.840  0.1176E+01  0.3776E+02
   7.850  0.1166E+01  0.3778E+02
   7.860  0.1156E+01  0.3779E+02
   7.870  0.1145E+01  0.3780E+02
   7.880  0.1132E+01  0.3781E+02
   7.890  0.1119E+01  0.3782E+02
   7.900  0.1103E+01  0.3783E+02
   7.910  0.1094E+01  0.3784E+02
   7.920  0.1087E+01  0.3785E+02
   7.930  0.1079E+01  0.3787E+02
   7.940  0.1071E+01  0.3788E+02
   7.950  0.1063E+01  0.3789E+02
   7.960  0.1055E+01  0.3790E+02
   7.970  0.1047E+01  0.3791E+02
   7.980  0.1039E+01  0.3792E+02
   7.990  0.1031E+01  0.3793E+02
   8.000  0.1023E+01  0.3794E+02
   8.010  0.1014E+01  0.3795E+02
   8.020  0.1005E+01  0.3796E+02
   8.030  0.9972E+00  0.3797E+02
   8.040  0.9914E+00  0.3798E+02
   8.050  0.9853E+00  0.3799E+02
   8.060  0.9786E+00  0.3800E+02
   8.070  0.9714E+00  0.3801E+02
   8.080  0.9644E+00  0.3802E+02
   8.090  0.9590E+00  0.3803E+02
   8.100  0.9494E+00  0.3804E+02
   8.110  0.9398E+00  0.3805E+02
   8.120  0.9314E+00  0.3806E+02
   8.130  0.9242E+00  0.3807E+02
   8.140  0.9193E+00  0.3808E+02
   8.150  0.9156E+00  0.3808E+02
   8.160  0.9121E+00  0.3809E+02
   8.170  0.9086E+00  0.3810E+02
   8.180  0.9032E+00  0.3811E+02
   8.190  0.8972E+00  0.3812E+02
   8.200  0.8911E+00  0.3813E+02
   8.210  0.8845E+00  0.3814E+02
   8.220  0.8776E+00  0.3815E+02
   8.230  0.8709E+00  0.3816E+02
   8.240  0.8650E+00  0.3816E+02
   8.250  0.8589E+00  0.3817E+02
   8.260  0.8536E+00  0.3818E+02
   8.270  0.8500E+00  0.3819E+02
   8.280  0.8463E+00  0.3820E+02
   8.290  0.8421E+00  0.3821E+02
   8.300  0.8381E+00  0.3822E+02
   8.310  0.8349E+00  0.3822E+02
   8.320  0.8315E+00  0.3823E+02
   8.330  0.8239E+00  0.3824E+02
   8.340  0.8166E+00  0.3825E+02
   8.350  0.8096E+00  0.3826E+02
   8.360  0.8072E+00  0.3827E+02
   8.370  0.8037E+00  0.3827E+02
   8.380  0.8000E+00  0.3828E+02
   8.390  0.7964E+00  0.3829E+02
   8.400  0.7927E+00  0.3830E+02
   8.410  0.7889E+00  0.3830E+02
   8.420  0.7835E+00  0.3831E+02
   8.430  0.7793E+00  0.3832E+02
   8.440  0.7748E+00  0.3833E+02
   8.450  0.7703E+00  0.3834E+02
   8.460  0.7658E+00  0.3834E+02
   8.470  0.7613E+00  0.3835E+02
   8.480  0.7563E+00  0.3836E+02
   8.490  0.7512E+00  0.3837E+02
   8.500  0.7487E+00  0.3837E+02
   8.510  0.7663E+00  0.3838E+02
   8.520  0.7974E+00  0.3839E+02
   8.530  0.8330E+00  0.3840E+02
   8.540  0.8658E+00  0.3841E+02
   8.550  0.8959E+00  0.3841E+02
   8.560  0.9290E+00  0.3842E+02
   8.570  0.9630E+00  0.3843E+02
   8.580  0.9947E+00  0.3844E+02
   8.590  0.1026E+01  0.3845E+02
   8.600  0.1059E+01  0.3846E+02
   8.610  0.1091E+01  0.3847E+02
   8.620  0.1126E+01  0.3849E+02
   8.630  0.1161E+01  0.3850E+02
   8.640  0.1196E+01  0.3851E+02
   8.650  0.1232E+01  0.3852E+02
   8.660  0.1284E+01  0.3853E+02
   8.670  0.1470E+01  0.3855E+02
   8.680  0.1542E+01  0.3856E+02
   8.690  0.1620E+01  0.3858E+02
   8.700  0.1572E+01  0.3859E+02
   8.710  0.1584E+01  0.3861E+02
   8.720  0.1591E+01  0.3863E+02
   8.730  0.1618E+01  0.3864E+02
   8.740  0.1591E+01  0.3866E+02
   8.750  0.1613E+01  0.3867E+02
   8.760  0.1603E+01  0.3869E+02
   8.770  0.1624E+01  0.3871E+02
   8.780  0.1644E+01  0.3872E+02
   8.790  0.1634E+01  0.3874E+02
   8.800  0.1628E+01  0.3876E+02
   8.810  0.1629E+01  0.3877E+02
   8.820  0.1637E+01  0.3879E+02
   8.830  0.1654E+01  0.3880E+02
   8.840  0.1661E+01  0.3882E+02
   8.850  0.1660E+01  0.3884E+02
   8.860  0.1665E+01  0.3885E+02
   8.870  0.1669E+01  0.3887E+02
   8.880  0.1674E+01  0.3889E+02
   8.890  0.1683E+01  0.3890E+02
   8.900  0.1691E+01  0.3892E+02
   8.910  0.1756E+01  0.3894E+02
   8.920  0.2200E+01  0.3896E+02
   8.930  0.2365E+01  0.3898E+02
   8.940  0.2665E+01  0.3901E+02
   8.950  0.3846E+01  0.3904E+02
   8.960  0.4278E+01  0.3908E+02
   8.970  0.4426E+01  0.3912E+02
   8.980  0.4559E+01  0.3917E+02
   8.990  0.4384E+01  0.3921E+02
   9.000  0.4223E+01  0.3926E+02
   9.010  0.4309E+01  0.3930E+02
   9.020  0.4474E+01  0.3934E+02
   9.030  0.4025E+01  0.3938E+02
   9.040  0.3877E+01  0.3942E+02
   9.050  0.3811E+01  0.3946E+02
   9.060  0.3721E+01  0.3950E+02
   9.070  0.3670E+01  0.3954E+02
   9.080  0.3663E+01  0.3957E+02
   9.090  0.3611E+01  0.3961E+02
   9.100  0.3607E+01  0.3964E+02
   9.110  0.3546E+01  0.3968E+02
   9.120  0.3537E+01  0.3972E+02
   9.130  0.3522E+01  0.3975E+02
   9.140  0.3546E+01  0.3979E+02
   9.150  0.3552E+01  0.3982E+02
   9.160  0.3624E+01  0.3986E+02
   9.170  0.3621E+01  0.3989E+02
   9.180  0.3659E+01  0.3993E+02
   9.190  0.3815E+01  0.3997E+02
   9.200  0.3987E+01  0.4001E+02
   9.210  0.4268E+01  0.4005E+02
   9.220  0.4006E+01  0.4009E+02
   9.230  0.3955E+01  0.4013E+02
   9.240  0.3927E+01  0.4017E+02
   9.250  0.3906E+01  0.4021E+02
   9.260  0.3850E+01  0.4025E+02
   9.270  0.3753E+01  0.4029E+02
   9.280  0.3694E+01  0.4032E+02
   9.290  0.3620E+01  0.4036E+02
   9.300  0.3553E+01  0.4040E+02
   9.310  0.3513E+01  0.4043E+02
   9.320  0.3459E+01  0.4047E+02
   9.330  0.3422E+01  0.4050E+02
   9.340  0.3411E+01  0.4053E+02
   9.350  0.3496E+01  0.4057E+02
   9.360  0.3510E+01  0.4060E+02
   9.370  0.3477E+01  0.4064E+02
   9.380  0.3452E+01  0.4067E+02
   9.390  0.3442E+01  0.4071E+02
   9.400  0.3436E+01  0.4074E+02
   9.410  0.3440E+01  0.4078E+02
   9.420  0.3417E+01  0.4081E+02
   9.430  0.3407E+01  0.4085E+02
   9.440  0.3392E+01  0.4088E+02
   9.450  0.3330E+01  0.4091E+02
   9.460  0.3314E+01  0.4095E+02
   9.470  0.3311E+01  0.4098E+02
   9.480  0.3322E+01  0.4101E+02
   9.490  0.3347E+01  0.4105E+02
   9.500  0.3387E+01  0.4108E+02
   9.510  0.3480E+01  0.4111E+02
   9.520  0.3527E+01  0.4115E+02
   9.530  0.3617E+01  0.4118E+02
   9.540  0.3732E+01  0.4122E+02
   9.550  0.3864E+01  0.4126E+02
   9.560  0.4226E+01  0.4130E+02
   9.570  0.4874E+01  0.4134E+02
   9.580  0.5813E+01  0.4140E+02
   9.590  0.6803E+01  0.4146E+02
   9.600  0.6813E+01  0.4153E+02
   9.610  0.6360E+01  0.4160E+02
   9.620  0.5910E+01  0.4166E+02
   9.630  0.5579E+01  0.4172E+02
   9.640  0.5330E+01  0.4177E+02
   9.650  0.5212E+01  0.4182E+02
   9.660  0.5150E+01  0.4188E+02
   9.670  0.5135E+01  0.4193E+02
   9.680  0.5161E+01  0.4198E+02
   9.690  0.5210E+01  0.4203E+02
   9.700  0.5264E+01  0.4208E+02
   9.710  0.5535E+01  0.4214E+02
   9.720  0.5391E+01  0.4219E+02
   9.730  0.5145E+01  0.4224E+02
   9.740  0.5016E+01  0.4229E+02
   9.750  0.4969E+01  0.4234E+02
   9.760  0.5186E+01  0.4239E+02
   9.770  0.5223E+01  0.4245E+02
   9.780  0.5262E+01  0.4250E+02
   9.790  0.5430E+01  0.4255E+02
   9.800  0.5322E+01  0.4261E+02
   9.810  0.5455E+01  0.4266E+02
   9.820  0.5435E+01  0.4271E+02
   9.830  0.5449E+01  0.4277E+02
   9.840  0.5629E+01  0.4283E+02
   9.850  0.5290E+01  0.4288E+02
   9.860  0.5326E+01  0.4293E+02
   9.870  0.5098E+01  0.4298E+02
   9.880  0.5048E+01  0.4304E+02
   9.890  0.5209E+01  0.4309E+02
   9.900  0.5204E+01  0.4314E+02
   9.910  0.5176E+01  0.4319E+02
   9.920  0.5210E+01  0.4324E+02
   9.930  0.5428E+01  0.4330E+02
   9.940  0.5516E+01  0.4335E+02
   9.950  0.5551E+01  0.4341E+02
   9.960  0.5654E+01  0.4346E+02
   9.970  0.5560E+01  0.4352E+02
   9.980  0.5697E+01  0.4357E+02
   9.990  0.5491E+01  0.4363E+02
  10.000  0.5459E+01  0.4369E+02
  10.010  0.5525E+01  0.4374E+02
  10.020  0.5519E+01  0.4380E+02
  10.030  0.5441E+01  0.4385E+02
  10.040  0.5170E+01  0.4390E+02
  10.050  0.4599E+01  0.4395E+02
  10.060  0.4330E+01  0.4400E+02
  10.070  0.4318E+01  0.4404E+02
  10.080  0.4532E+01  0.4408E+02
  10.090  0.4599E+01  0.4413E+02
  10.100  0.4747E+01  0.4418E+02
  10.110  0.4905E+01  0.4423E+02
  10.120  0.5039E+01  0.4428E+02
  10.130  0.5261E+01  0.4433E+02
  10.140  0.5767E+01  0.4438E+02
  10.150  0.6665E+01  0.4445E+02
  10.160  0.4298E+01  0.4451E+02
  10.170  0.4268E+01  0.4455E+02
  10.180  0.4249E+01  0.4459E+02
  10.190  0.4222E+01  0.4463E+02
  10.200  0.4271E+01  0.4468E+02
  10.210  0.4171E+01  0.4472E+02
  10.220  0.4169E+01  0.4476E+02
  10.230  0.4268E+01  0.4480E+02
  10.240  0.4487E+01  0.4484E+02
  10.250  0.4698E+01  0.4489E+02
  10.260  0.4755E+01  0.4494E+02
  10.270  0.4802E+01  0.4499E+02
  10.280  0.4767E+01  0.4503E+02
  10.290  0.4736E+01  0.4508E+02
  10.300  0.4770E+01  0.4513E+02
  10.310  0.4938E+01  0.4518E+02
  10.320  0.4936E+01  0.4523E+02
  10.330  0.5044E+01  0.4528E+02
  10.340  0.5096E+01  0.4533E+02
  10.350  0.5143E+01  0.4538E+02
  10.360  0.5234E+01  0.4543E+02
  10.370  0.5177E+01  0.4548E+02
  10.380  0.5181E+01  0.4553E+02
  10.390  0.5203E+01  0.4559E+02
  10.400  0.5209E+01  0.4564E+02
  10.410  0.5256E+01  0.4569E+02
  10.420  0.4915E+01  0.4574E+02
  10.430  0.4669E+01  0.4579E+02
  10.440  0.4594E+01  0.4584E+02
  10.450  0.4524E+01  0.4588E+02
  10.460  0.4487E+01  0.4593E+02
  10.470  0.4531E+01  0.4597E+02
  10.480  0.4578E+01  0.4602E+02
  10.490  0.4591E+01  0.4606E+02
  10.500  0.4173E+01  0.4611E+02
  10.510  0.4094E+01  0.4615E+02
  10.520  0.3973E+01  0.4619E+02
  10.530  0.3892E+01  0.4623E+02
  10.540  0.3812E+01  0.4627E+02
  10.550  0.3789E+01  0.4630E+02
  10.560  0.3754E+01  0.4634E+02
  10.570  0.3714E+01  0.4638E+02
  10.580  0.3663E+01  0.4642E+02
  10.590  0.3614E+01  0.4645E+02
  10.600  0.3575E+01  0.4649E+02
  10.610  0.3542E+01  0.4652E+02
  10.620  0.3502E+01  0.4656E+02
  10.630  0.3467E+01  0.4659E+02
  10.640  0.3426E+01  0.4663E+02
  10.650  0.3391E+01  0.4666E+02
  10.660  0.3371E+01  0.4670E+02
  10.670  0.3356E+01  0.4673E+02
  10.680  0.3348E+01  0.4676E+02
  10.690  0.3317E+01  0.4680E+02
  10.700  0.3287E+01  0.4683E+02
  10.710  0.3267E+01  0.4686E+02
  10.720  0.3242E+01  0.4690E+02
  10.730  0.3217E+01  0.4693E+02
  10.740  0.3201E+01  0.4696E+02
  10.750  0.3193E+01  0.4699E+02
  10.760  0.3184E+01  0.4702E+02
  10.770  0.3175E+01  0.4706E+02
  10.780  0.3167E+01  0.4709E+02
  10.790  0.3171E+01  0.4712E+02
  10.800  0.3197E+01  0.4715E+02
  10.810  0.3144E+01  0.4718E+02
  10.820  0.3132E+01  0.4721E+02
  10.830  0.3122E+01  0.4725E+02
  10.840  0.3107E+01  0.4728E+02
  10.850  0.3091E+01  0.4731E+02
  10.860  0.3084E+01  0.4734E+02
  10.870  0.3083E+01  0.4737E+02
  10.880  0.3080E+01  0.4740E+02
  10.890  0.3081E+01  0.4743E+02
  10.900  0.3098E+01  0.4746E+02
  10.910  0.3104E+01  0.4749E+02
  10.920  0.3109E+01  0.4752E+02
  10.930  0.3111E+01  0.4755E+02
  10.940  0.3134E+01  0.4759E+02
  10.950  0.3130E+01  0.4762E+02
  10.960  0.3103E+01  0.4765E+02
  10.970  0.3093E+01  0.4768E+02
  10.980  0.3085E+01  0.4771E+02
  10.990  0.3082E+01  0.4774E+02
  11.000  0.3081E+01  0.4777E+02
  11.010  0.3080E+01  0.4780E+02
  11.020  0.3086E+01  0.4783E+02
  11.030  0.3111E+01  0.4786E+02
  11.040  0.3132E+01  0.4790E+02
  11.050  0.3158E+01  0.4793E+02
  11.060  0.3188E+01  0.4796E+02
  11.070  0.3206E+01  0.4799E+02
  11.080  0.3224E+01  0.4802E+02
  11.090  0.3241E+01  0.4806E+02
  11.100  0.3274E+01  0.4809E+02
  11.110  0.3290E+01  0.4812E+02
  11.120  0.3293E+01  0.4815E+02
  11.130  0.3307E+01  0.4819E+02
  11.140  0.3334E+01  0.4822E+02
  11.150  0.3350E+01  0.4825E+02
  11.160  0.3432E+01  0.4829E+02
  11.170  0.3488E+01  0.4832E+02
  11.180  0.3517E+01  0.4836E+02
  11.190  0.3504E+01  0.4839E+02
  11.200  0.3549E+01  0.4843E+02
  11.210  0.3519E+01  0.4846E+02
  11.220  0.3494E+01  0.4850E+02
  11.230  0.3495E+01  0.4853E+02
  11.240  0.3451E+01  0.4857E+02
  11.250  0.3410E+01  0.4860E+02
  11.260  0.3420E+01  0.4864E+02
  11.270  0.3425E+01  0.4867E+02
  11.280  0.3441E+01  0.4870E+02
  11.290  0.3460E+01  0.4874E+02
  11.300  0.3484E+01  0.4877E+02
  11.310  0.3516E+01  0.4881E+02
  11.320  0.3574E+01  0.4884E+02
  11.330  0.3619E+01  0.4888E+02
  11.340  0.3747E+01  0.4892E+02
  11.350  0.3850E+01  0.4896E+02
  11.360  0.3941E+01  0.4899E+02
  11.370  0.4083E+01  0.4903E+02
  11.380  0.4248E+01  0.4908E+02
  11.390  0.4322E+01  0.4912E+02
  11.400  0.4304E+01  0.4916E+02
  11.410  0.4387E+01  0.4921E+02
  11.420  0.4497E+01  0.4925E+02
  11.430  0.4475E+01  0.4929E+02
  11.440  0.4482E+01  0.4934E+02
  11.450  0.4483E+01  0.4938E+02
  11.460  0.4486E+01  0.4943E+02
  11.470  0.4514E+01  0.4947E+02
  11.480  0.4462E+01  0.4952E+02
  11.490  0.4396E+01  0.4956E+02
  11.500  0.4322E+01  0.4961E+02
  11.510  0.4289E+01  0.4965E+02
  11.520  0.4239E+01  0.4969E+02
  11.530  0.4199E+01  0.4973E+02
  11.540  0.4233E+01  0.4978E+02
  11.550  0.4248E+01  0.4982E+02
  11.560  0.4197E+01  0.4986E+02
  11.570  0.4159E+01  0.4990E+02
  11.580  0.4136E+01  0.4994E+02
  11.590  0.4114E+01  0.4999E+02
  11.600  0.4123E+01  0.5003E+02
  11.610  0.4130E+01  0.5007E+02
  11.620  0.4114E+01  0.5011E+02
  11.630  0.4123E+01  0.5015E+02
  11.640  0.4128E+01  0.5019E+02
  11.650  0.4122E+01  0.5023E+02
  11.660  0.4117E+01  0.5027E+02
  11.670  0.4138E+01  0.5032E+02
  11.680  0.4105E+01  0.5036E+02
  11.690  0.4104E+01  0.5040E+02
  11.700  0.4115E+01  0.5044E+02
  11.710  0.4128E+01  0.5048E+02
  11.720  0.4139E+01  0.5052E+02
  11.730  0.4137E+01  0.5056E+02
  11.740  0.4131E+01  0.5060E+02
  11.750  0.4136E+01  0.5065E+02
  11.760  0.4161E+01  0.5069E+02
  11.770  0.4240E+01  0.5073E+02
  11.780  0.4290E+01  0.5077E+02
  11.790  0.4317E+01  0.5081E+02
  11.800  0.4348E+01  0.5086E+02
  11.810  0.4341E+01  0.5090E+02
  11.820  0.4352E+01  0.5095E+02
  11.830  0.4385E+01  0.5099E+02
  11.840  0.4407E+01  0.5103E+02
  11.850  0.4394E+01  0.5108E+02
  11.860  0.4365E+01  0.5112E+02
  11.870  0.4386E+01  0.5116E+02
  11.880  0.4426E+01  0.5121E+02
  11.890  0.4505E+01  0.5125E+02
  11.900  0.4521E+01  0.5130E+02
  11.910  0.4558E+01  0.5134E+02
  11.920  0.4642E+01  0.5139E+02
  11.930  0.4587E+01  0.5144E+02
  11.940  0.4561E+01  0.5148E+02
  11.950  0.4594E+01  0.5153E+02
  11.960  0.4605E+01  0.5157E+02
  11.970  0.4552E+01  0.5162E+02
  11.980  0.4491E+01  0.5167E+02
  11.990  0.4462E+01  0.5171E+02
  12.000  0.4492E+01  0.5175E+02
  12.010  0.4489E+01  0.5180E+02
  12.020  0.4521E+01  0.5184E+02
  12.030  0.4534E+01  0.5189E+02
  12.040  0.4459E+01  0.5194E+02
  12.050  0.4337E+01  0.5198E+02
  12.060  0.4182E+01  0.5202E+02
  12.070  0.4262E+01  0.5206E+02
  12.080  0.4420E+01  0.5211E+02
  12.090  0.4612E+01  0.5215E+02
  12.100  0.4504E+01  0.5220E+02
  12.110  0.4534E+01  0.5224E+02
  12.120  0.4605E+01  0.5229E+02
  12.130  0.4647E+01  0.5234E+02
  12.140  0.4631E+01  0.5238E+02
  12.150  0.4673E+01  0.5243E+02
  12.160  0.4749E+01  0.5248E+02
  12.170  0.4712E+01  0.5252E+02
  12.180  0.4618E+01  0.5257E+02
  12.190  0.4540E+01  0.5262E+02
  12.200  0.4532E+01  0.5266E+02
  12.210  0.4516E+01  0.5271E+02
  12.220  0.4581E+01  0.5275E+02
  12.230  0.4634E+01  0.5280E+02
  12.240  0.4705E+01  0.5285E+02
  12.250  0.4802E+01  0.5289E+02
  12.260  0.4890E+01  0.5294E+02
  12.270  0.5013E+01  0.5299E+02
  12.280  0.5041E+01  0.5304E+02
  12.290  0.5285E+01  0.5309E+02
  12.300  0.5419E+01  0.5315E+02
  12.310  0.5583E+01  0.5320E+02
  12.320  0.5668E+01  0.5326E+02
  12.330  0.5672E+01  0.5332E+02
  12.340  0.5631E+01  0.5337E+02
  12.350  0.5627E+01  0.5343E+02
  12.360  0.5721E+01  0.5348E+02
  12.370  0.5883E+01  0.5354E+02
  12.380  0.6087E+01  0.5360E+02
  12.390  0.6362E+01  0.5366E+02
  12.400  0.6403E+01  0.5373E+02
  12.410  0.6451E+01  0.5379E+02
  12.420  0.6504E+01  0.5386E+02
  12.430  0.6583E+01  0.5392E+02
  12.440  0.6531E+01  0.5399E+02
  12.450  0.6604E+01  0.5405E+02
  12.460  0.7184E+01  0.5412E+02
  12.470  0.6591E+01  0.5419E+02
  12.480  0.6297E+01  0.5425E+02
  12.490  0.6240E+01  0.5432E+02
  12.500  0.6246E+01  0.5438E+02
  12.510  0.6254E+01  0.5444E+02
  12.520  0.6324E+01  0.5450E+02
  12.530  0.6507E+01  0.5457E+02
  12.540  0.6659E+01  0.5463E+02
  12.550  0.7009E+01  0.5470E+02
  12.560  0.7042E+01  0.5477E+02
  12.570  0.7015E+01  0.5484E+02
  12.580  0.7056E+01  0.5491E+02
  12.590  0.7235E+01  0.5499E+02
  12.600  0.7440E+01  0.5506E+02
  12.610  0.7697E+01  0.5513E+02
  12.620  0.8134E+01  0.5521E+02
  12.630  0.8655E+01  0.5530E+02
  12.640  0.7898E+01  0.5538E+02
  12.650  0.7814E+01  0.5546E+02
  12.660  0.7080E+01  0.5554E+02
  12.670  0.6491E+01  0.5561E+02
  12.680  0.6362E+01  0.5567E+02
  12.690  0.6170E+01  0.5573E+02
  12.700  0.6070E+01  0.5579E+02
  12.710  0.6063E+01  0.5585E+02
  12.720  0.6079E+01  0.5591E+02
  12.730  0.6007E+01  0.5597E+02
  12.740  0.6067E+01  0.5603E+02
  12.750  0.5885E+01  0.5609E+02
  12.760  0.6003E+01  0.5615E+02
  12.770  0.6230E+01  0.5621E+02
  12.780  0.6346E+01  0.5628E+02
  12.790  0.6276E+01  0.5634E+02
  12.800  0.6227E+01  0.5640E+02
  12.810  0.6108E+01  0.5647E+02
  12.820  0.6129E+01  0.5653E+02
  12.830  0.6241E+01  0.5659E+02
  12.840  0.6351E+01  0.5665E+02
  12.850  0.6470E+01  0.5672E+02
  12.860  0.6359E+01  0.5678E+02
  12.870  0.6259E+01  0.5684E+02
  12.880  0.6609E+01  0.5691E+02
  12.890  0.6880E+01  0.5698E+02
  12.900  0.7131E+01  0.5705E+02
  12.910  0.7513E+01  0.5712E+02
  12.920  0.6823E+01  0.5719E+02
  12.930  0.6705E+01  0.5726E+02
  12.940  0.6442E+01  0.5732E+02
  12.950  0.6096E+01  0.5739E+02
  12.960  0.6034E+01  0.5745E+02
  12.970  0.6001E+01  0.5751E+02
  12.980  0.5983E+01  0.5757E+02
  12.990  0.5903E+01  0.5763E+02
  13.000  0.5861E+01  0.5769E+02
  13.010  0.5507E+01  0.5774E+02
  13.020  0.5352E+01  0.5780E+02
  13.030  0.5180E+01  0.5785E+02
  13.040  0.5087E+01  0.5790E+02
  13.050  0.5126E+01  0.5795E+02
  13.060  0.5166E+01  0.5801E+02
  13.070  0.5178E+01  0.5806E+02
  13.080  0.5259E+01  0.5811E+02
  13.090  0.5254E+01  0.5816E+02
  13.100  0.5275E+01  0.5822E+02
  13.110  0.5298E+01  0.5827E+02
  13.120  0.5347E+01  0.5832E+02
  13.130  0.5329E+01  0.5838E+02
  13.140  0.5227E+01  0.5843E+02
  13.150  0.5100E+01  0.5848E+02
  13.160  0.4992E+01  0.5853E+02
  13.170  0.4993E+01  0.5858E+02
  13.180  0.4941E+01  0.5863E+02
  13.190  0.4944E+01  0.5868E+02
  13.200  0.4909E+01  0.5873E+02
  13.210  0.4869E+01  0.5878E+02
  13.220  0.4791E+01  0.5883E+02
  13.230  0.4811E+01  0.5887E+02
  13.240  0.4636E+01  0.5892E+02
  13.250  0.4312E+01  0.5897E+02
  13.260  0.4573E+01  0.5901E+02
  13.270  0.4660E+01  0.5906E+02
  13.280  0.5189E+01  0.5911E+02
  13.290  0.5633E+01  0.5916E+02
  13.300  0.5783E+01  0.5922E+02
  13.310  0.5864E+01  0.5928E+02
  13.320  0.6071E+01  0.5934E+02
  13.330  0.5957E+01  0.5940E+02
  13.340  0.5808E+01  0.5946E+02
  13.350  0.5924E+01  0.5951E+02
  13.360  0.5814E+01  0.5957E+02
  13.370  0.5903E+01  0.5963E+02
  13.380  0.5907E+01  0.5969E+02
  13.390  0.5806E+01  0.5975E+02
  13.400  0.5390E+01  0.5981E+02
  13.410  0.5180E+01  0.5986E+02
  13.420  0.5115E+01  0.5991E+02
  13.430  0.5185E+01  0.5996E+02
  13.440  0.5314E+01  0.6001E+02
  13.450  0.5337E+01  0.6007E+02
  13.460  0.5168E+01  0.6012E+02
  13.470  0.5073E+01  0.6017E+02
  13.480  0.5075E+01  0.6022E+02
  13.490  0.5125E+01  0.6027E+02
  13.500  0.5194E+01  0.6032E+02
  13.510  0.5173E+01  0.6038E+02
  13.520  0.5079E+01  0.6043E+02
  13.530  0.4968E+01  0.6048E+02
  13.540  0.4911E+01  0.6053E+02
  13.550  0.4906E+01  0.6058E+02
  13.560  0.5054E+01  0.6063E+02
  13.570  0.5196E+01  0.6068E+02
  13.580  0.5304E+01  0.6073E+02
  13.590  0.5400E+01  0.6078E+02
  13.600  0.5650E+01  0.6084E+02
  13.610  0.5633E+01  0.6089E+02
  13.620  0.5716E+01  0.6095E+02
  13.630  0.5756E+01  0.6101E+02
  13.640  0.5736E+01  0.6107E+02
  13.650  0.5826E+01  0.6112E+02
  13.660  0.5706E+01  0.6118E+02
  13.670  0.5807E+01  0.6124E+02
  13.680  0.5937E+01  0.6130E+02
  13.690  0.5969E+01  0.6136E+02
  13.700  0.5751E+01  0.6142E+02
  13.710  0.5728E+01  0.6147E+02
  13.720  0.5709E+01  0.6153E+02
  13.730  0.5575E+01  0.6159E+02
  13.740  0.5535E+01  0.6164E+02
  13.750  0.5426E+01  0.6170E+02
  13.760  0.5350E+01  0.6175E+02
  13.770  0.5391E+01  0.6181E+02
  13.780  0.5476E+01  0.6186E+02
  13.790  0.5464E+01  0.6191E+02
  13.800  0.5428E+01  0.6197E+02
  13.810  0.5432E+01  0.6202E+02
  13.820  0.5869E+01  0.6208E+02
  13.830  0.5874E+01  0.6214E+02
  13.840  0.5884E+01  0.6220E+02
  13.850  0.5944E+01  0.6226E+02
  13.860  0.6105E+01  0.6232E+02
  13.870  0.6212E+01  0.6238E+02
  13.880  0.6319E+01  0.6244E+02
  13.890  0.6355E+01  0.6251E+02
  13.900  0.6284E+01  0.6257E+02
  13.910  0.6205E+01  0.6263E+02
  13.920  0.6226E+01  0.6269E+02
  13.930  0.6213E+01  0.6275E+02
  13.940  0.6200E+01  0.6282E+02
  13.950  0.6231E+01  0.6288E+02
  13.960  0.6282E+01  0.6294E+02
  13.970  0.6424E+01  0.6300E+02
  13.980  0.6505E+01  0.6307E+02
  13.990  0.6669E+01  0.6314E+02
  14.000  0.6580E+01  0.6320E+02
  14.010  0.6352E+01  0.6327E+02
  14.020  0.6243E+01  0.6333E+02
  14.030  0.6156E+01  0.6339E+02
  14.040  0.6230E+01  0.6345E+02
  14.050  0.6008E+01  0.6352E+02
  14.060  0.5870E+01  0.6357E+02
  14.070  0.5820E+01  0.6363E+02
  14.080  0.5788E+01  0.6369E+02
  14.090  0.5766E+01  0.6375E+02
  14.100  0.5774E+01  0.6381E+02
  14.110  0.5852E+01  0.6386E+02
  14.120  0.5776E+01  0.6392E+02
  14.130  0.5712E+01  0.6398E+02
  14.140  0.5684E+01  0.6404E+02
  14.150  0.5731E+01  0.6410E+02
  14.160  0.5779E+01  0.6415E+02
  14.170  0.5801E+01  0.6421E+02
  14.180  0.5789E+01  0.6427E+02
  14.190  0.5863E+01  0.6433E+02
  14.200  0.5893E+01  0.6439E+02
  14.210  0.5964E+01  0.6444E+02
  14.220  0.6121E+01  0.6451E+02
  14.230  0.6181E+01  0.6457E+02
  14.240  0.6347E+01  0.6463E+02
  14.250  0.6616E+01  0.6469E+02
  14.260  0.6524E+01  0.6476E+02
  14.270  0.6225E+01  0.6482E+02
  14.280  0.6285E+01  0.6489E+02
  14.290  0.6450E+01  0.6495E+02
  14.300  0.6303E+01  0.6501E+02
  14.310  0.6298E+01  0.6508E+02
  14.320  0.6409E+01  0.6514E+02
  14.330  0.6881E+01  0.6521E+02
  14.340  0.6835E+01  0.6528E+02
  14.350  0.6301E+01  0.6534E+02
  14.360  0.6347E+01  0.6541E+02
  14.370  0.5903E+01  0.6547E+02
  14.380  0.5702E+01  0.6553E+02
  14.390  0.5610E+01  0.6558E+02
  14.400  0.5578E+01  0.6564E+02
  14.410  0.5500E+01  0.6569E+02
  14.420  0.5326E+01  0.6575E+02
  14.430  0.5351E+01  0.6580E+02
  14.440  0.6218E+01  0.6586E+02
  14.450  0.6582E+01  0.6593E+02
  14.460  0.7291E+01  0.6599E+02
  14.470  0.8563E+01  0.6607E+02
  14.480  0.9044E+01  0.6617E+02
  14.490  0.9053E+01  0.6625E+02
  14.500  0.8688E+01  0.6634E+02
  14.510  0.8413E+01  0.6643E+02
  14.520  0.8200E+01  0.6651E+02
  14.530  0.8089E+01  0.6659E+02
  14.540  0.8087E+01  0.6667E+02
  14.550  0.7878E+01  0.6675E+02
  14.560  0.7650E+01  0.6683E+02
  14.570  0.7631E+01  0.6691E+02
  14.580  0.7556E+01  0.6698E+02
  14.590  0.7149E+01  0.6706E+02
  14.600  0.6260E+01  0.6713E+02
  14.610  0.6000E+01  0.6719E+02
  14.620  0.5698E+01  0.6725E+02
  14.630  0.5466E+01  0.6730E+02
  14.640  0.5068E+01  0.6735E+02
  14.650  0.4966E+01  0.6740E+02
  14.660  0.4826E+01  0.6745E+02
  14.670  0.4684E+01  0.6750E+02
  14.680  0.4564E+01  0.6755E+02
  14.690  0.4595E+01  0.6759E+02
  14.700  0.4490E+01  0.6764E+02
  14.710  0.4318E+01  0.6768E+02
  14.720  0.4061E+01  0.6772E+02
  14.730  0.3892E+01  0.6776E+02
  14.740  0.3780E+01  0.6780E+02
  14.750  0.3739E+01  0.6784E+02
  14.760  0.3755E+01  0.6788E+02
  14.770  0.3775E+01  0.6791E+02
  14.780  0.3839E+01  0.6795E+02
  14.790  0.3768E+01  0.6799E+02
  14.800  0.3724E+01  0.6803E+02
  14.810  0.3685E+01  0.6806E+02
  14.820  0.3888E+01  0.6810E+02
  14.830  0.3953E+01  0.6814E+02
  14.840  0.3961E+01  0.6818E+02
  14.850  0.4026E+01  0.6822E+02
  14.860  0.4121E+01  0.6826E+02
  14.870  0.4140E+01  0.6830E+02
  14.880  0.4182E+01  0.6834E+02
  14.890  0.4228E+01  0.6839E+02
  14.900  0.4321E+01  0.6843E+02
  14.910  0.4254E+01  0.6847E+02
  14.920  0.4151E+01  0.6851E+02
  14.930  0.4069E+01  0.6856E+02
  14.940  0.3946E+01  0.6860E+02
  14.950  0.3765E+01  0.6863E+02
  14.960  0.3665E+01  0.6867E+02
  14.970  0.3599E+01  0.6871E+02
  14.980  0.3548E+01  0.6874E+02
  14.990  0.3507E+01  0.6878E+02
  15.000  0.3456E+01  0.6881E+02
