#  E (eV)   dos(E)     Int dos(E) EFermi =    7.843 eV
 -15.000  0.0000E+00  0.0000E+00
 -14.990  0.0000E+00  0.0000E+00
 -14.980  0.0000E+00  0.0000E+00
 -14.970  0.0000E+00  0.0000E+00
 -14.960  0.0000E+00  0.0000E+00
 -14.950  0.0000E+00  0.0000E+00
 -14.940  0.0000E+00  0.0000E+00
 -14.930  0.0000E+00  0.0000E+00
 -14.920  0.0000E+00  0.0000E+00
 -14.910  0.0000E+00  0.0000E+00
 -14.900  0.0000E+00  0.0000E+00
 -14.890  0.0000E+00  0.0000E+00
 -14.880  0.0000E+00  0.0000E+00
 -14.870  0.0000E+00  0.0000E+00
 -14.860  0.0000E+00  0.0000E+00
 -14.850  0.0000E+00  0.0000E+00
 -14.840  0.0000E+00  0.0000E+00
 -14.830  0.0000E+00  0.0000E+00
 -14.820  0.0000E+00  0.0000E+00
 -14.810  0.0000E+00  0.0000E+00
 -14.800  0.0000E+00  0.0000E+00
 -14.790  0.0000E+00  0.0000E+00
 -14.780  0.0000E+00  0.0000E+00
 -14.770  0.0000E+00  0.0000E+00
 -14.760  0.0000E+00  0.0000E+00
 -14.750  0.0000E+00  0.0000E+00
 -14.740  0.0000E+00  0.0000E+00
 -14.730  0.0000E+00  0.0000E+00
 -14.720  0.0000E+00  0.0000E+00
 -14.710  0.0000E+00  0.0000E+00
 -14.700  0.0000E+00  0.0000E+00
 -14.690  0.0000E+00  0.0000E+00
 -14.680  0.0000E+00  0.0000E+00
 -14.670  0.0000E+00  0.0000E+00
 -14.660  0.0000E+00  0.0000E+00
 -14.650  0.0000E+00  0.0000E+00
 -14.640  0.0000E+00  0.0000E+00
 -14.630  0.0000E+00  0.0000E+00
 -14.620  0.0000E+00  0.0000E+00
 -14.610  0.0000E+00  0.0000E+00
 -14.600  0.0000E+00  0.0000E+00
 -14.590  0.0000E+00  0.0000E+00
 -14.580  0.0000E+00  0.0000E+00
 -14.570  0.0000E+00  0.0000E+00
 -14.560  0.0000E+00  0.0000E+00
 -14.550  0.0000E+00  0.0000E+00
 -14.540  0.0000E+00  0.0000E+00
 -14.530  0.0000E+00  0.0000E+00
 -14.520  0.0000E+00  0.0000E+00
 -14.510  0.0000E+00  0.0000E+00
 -14.500  0.0000E+00  0.0000E+00
 -14.490  0.0000E+00  0.0000E+00
 -14.480  0.0000E+00  0.0000E+00
 -14.470  0.0000E+00  0.0000E+00
 -14.460  0.0000E+00  0.0000E+00
 -14.450  0.0000E+00  0.0000E+00
 -14.440  0.0000E+00  0.0000E+00
 -14.430  0.0000E+00  0.0000E+00
 -14.420  0.0000E+00  0.0000E+00
 -14.410  0.0000E+00  0.0000E+00
 -14.400  0.0000E+00  0.0000E+00
 -14.390  0.0000E+00  0.0000E+00
 -14.380  0.0000E+00  0.0000E+00
 -14.370  0.0000E+00  0.0000E+00
 -14.360  0.0000E+00  0.0000E+00
 -14.350  0.0000E+00  0.0000E+00
 -14.340  0.0000E+00  0.0000E+00
 -14.330  0.0000E+00  0.0000E+00
 -14.320  0.0000E+00  0.0000E+00
 -14.310  0.0000E+00  0.0000E+00
 -14.300  0.0000E+00  0.0000E+00
 -14.290  0.0000E+00  0.0000E+00
 -14.280  0.0000E+00  0.0000E+00
 -14.270  0.0000E+00  0.0000E+00
 -14.260  0.0000E+00  0.0000E+00
 -14.250  0.0000E+00  0.0000E+00
 -14.240  0.0000E+00  0.0000E+00
 -14.230  0.0000E+00  0.0000E+00
 -14.220  0.0000E+00  0.0000E+00
 -14.210  0.0000E+00  0.0000E+00
 -14.200  0.0000E+00  0.0000E+00
 -14.190  0.0000E+00  0.0000E+00
 -14.180  0.0000E+00  0.0000E+00
 -14.170  0.0000E+00  0.0000E+00
 -14.160  0.0000E+00  0.0000E+00
 -14.150  0.0000E+00  0.0000E+00
 -14.140  0.0000E+00  0.0000E+00
 -14.130  0.0000E+00  0.0000E+00
 -14.120  0.0000E+00  0.0000E+00
 -14.110  0.0000E+00  0.0000E+00
 -14.100  0.0000E+00  0.0000E+00
 -14.090  0.0000E+00  0.0000E+00
 -14.080  0.0000E+00  0.0000E+00
 -14.070  0.0000E+00  0.0000E+00
 -14.060  0.0000E+00  0.0000E+00
 -14.050  0.0000E+00  0.0000E+00
 -14.040  0.0000E+00  0.0000E+00
 -14.030  0.0000E+00  0.0000E+00
 -14.020  0.0000E+00  0.0000E+00
 -14.010  0.0000E+00  0.0000E+00
 -14.000  0.0000E+00  0.0000E+00
 -13.990  0.0000E+00  0.0000E+00
 -13.980  0.0000E+00  0.0000E+00
 -13.970  0.0000E+00  0.0000E+00
 -13.960  0.0000E+00  0.0000E+00
 -13.950  0.0000E+00  0.0000E+00
 -13.940  0.0000E+00  0.0000E+00
 -13.930  0.0000E+00  0.0000E+00
 -13.920  0.0000E+00  0.0000E+00
 -13.910  0.0000E+00  0.0000E+00
 -13.900  0.0000E+00  0.0000E+00
 -13.890  0.0000E+00  0.0000E+00
 -13.880  0.0000E+00  0.0000E+00
 -13.870  0.0000E+00  0.0000E+00
 -13.860  0.0000E+00  0.0000E+00
 -13.850  0.0000E+00  0.0000E+00
 -13.840  0.0000E+00  0.0000E+00
 -13.830  0.0000E+00  0.0000E+00
 -13.820  0.0000E+00  0.0000E+00
 -13.810  0.0000E+00  0.0000E+00
 -13.800  0.0000E+00  0.0000E+00
 -13.790  0.0000E+00  0.0000E+00
 -13.780  0.0000E+00  0.0000E+00
 -13.770  0.0000E+00  0.0000E+00
 -13.760  0.0000E+00  0.0000E+00
 -13.750  0.0000E+00  0.0000E+00
 -13.740  0.0000E+00  0.0000E+00
 -13.730  0.0000E+00  0.0000E+00
 -13.720  0.0000E+00  0.0000E+00
 -13.710  0.0000E+00  0.0000E+00
 -13.700  0.0000E+00  0.0000E+00
 -13.690  0.0000E+00  0.0000E+00
 -13.680  0.0000E+00  0.0000E+00
 -13.670  0.0000E+00  0.0000E+00
 -13.660  0.0000E+00  0.0000E+00
 -13.650  0.0000E+00  0.0000E+00
 -13.640  0.0000E+00  0.0000E+00
 -13.630  0.0000E+00  0.0000E+00
 -13.620  0.0000E+00  0.0000E+00
 -13.610  0.0000E+00  0.0000E+00
 -13.600  0.0000E+00  0.0000E+00
 -13.590  0.0000E+00  0.0000E+00
 -13.580  0.0000E+00  0.0000E+00
 -13.570  0.0000E+00  0.0000E+00
 -13.560  0.0000E+00  0.0000E+00
 -13.550  0.0000E+00  0.0000E+00
 -13.540  0.0000E+00  0.0000E+00
 -13.530  0.0000E+00  0.0000E+00
 -13.520  0.0000E+00  0.0000E+00
 -13.510  0.0000E+00  0.0000E+00
 -13.500  0.0000E+00  0.0000E+00
 -13.490  0.0000E+00  0.0000E+00
 -13.480  0.0000E+00  0.0000E+00
 -13.470  0.0000E+00  0.0000E+00
 -13.460  0.0000E+00  0.0000E+00
 -13.450  0.1217E+00  0.1739E-03
 -13.440  0.5155E+00  0.3350E-02
 -13.430  0.9791E+00  0.1177E-01
 -13.420  0.9838E+00  0.2129E-01
 -13.410  0.9551E+00  0.3082E-01
 -13.400  0.1425E+01  0.4235E-01
 -13.390  0.1848E+01  0.5881E-01
 -13.380  0.1890E+01  0.7807E-01
 -13.370  0.1934E+01  0.9747E-01
 -13.360  0.1933E+01  0.1169E+00
 -13.350  0.1954E+01  0.1363E+00
 -13.340  0.1967E+01  0.1560E+00
 -13.330  0.1973E+01  0.1756E+00
 -13.320  0.1974E+01  0.1953E+00
 -13.310  0.1991E+01  0.2151E+00
 -13.300  0.1990E+01  0.2351E+00
 -13.290  0.1991E+01  0.2550E+00
 -13.280  0.2020E+01  0.2750E+00
 -13.270  0.2021E+01  0.2953E+00
 -13.260  0.2015E+01  0.3155E+00
 -13.250  0.2032E+01  0.3357E+00
 -13.240  0.2066E+01  0.3562E+00
 -13.230  0.2047E+01  0.3767E+00
 -13.220  0.2046E+01  0.3972E+00
 -13.210  0.2073E+01  0.4178E+00
 -13.200  0.2094E+01  0.4387E+00
 -13.190  0.2086E+01  0.4596E+00
 -13.180  0.2085E+01  0.4804E+00
 -13.170  0.2108E+01  0.5014E+00
 -13.160  0.2134E+01  0.5226E+00
 -13.150  0.2132E+01  0.5439E+00
 -13.140  0.2126E+01  0.5652E+00
 -13.130  0.2143E+01  0.5865E+00
 -13.120  0.2170E+01  0.6081E+00
 -13.110  0.2180E+01  0.6298E+00
 -13.100  0.2174E+01  0.6516E+00
 -13.090  0.2180E+01  0.6734E+00
 -13.080  0.2203E+01  0.6953E+00
 -13.070  0.2223E+01  0.7174E+00
 -13.060  0.2229E+01  0.7397E+00
 -13.050  0.2231E+01  0.7620E+00
 -13.040  0.2241E+01  0.7844E+00
 -13.030  0.2259E+01  0.8068E+00
 -13.020  0.2281E+01  0.8296E+00
 -13.010  0.2290E+01  0.8524E+00
 -13.000  0.2293E+01  0.8754E+00
 -12.990  0.2306E+01  0.8983E+00
 -12.980  0.2323E+01  0.9215E+00
 -12.970  0.2341E+01  0.9448E+00
 -12.960  0.2358E+01  0.9683E+00
 -12.950  0.2365E+01  0.9919E+00
 -12.940  0.2372E+01  0.1016E+01
 -12.930  0.2393E+01  0.1039E+01
 -12.920  0.2414E+01  0.1063E+01
 -12.910  0.2425E+01  0.1088E+01
 -12.900  0.2443E+01  0.1112E+01
 -12.890  0.2453E+01  0.1137E+01
 -12.880  0.2464E+01  0.1161E+01
 -12.870  0.2490E+01  0.1186E+01
 -12.860  0.2509E+01  0.1211E+01
 -12.850  0.2521E+01  0.1236E+01
 -12.840  0.2541E+01  0.1261E+01
 -12.830  0.2556E+01  0.1287E+01
 -12.820  0.2571E+01  0.1312E+01
 -12.810  0.2597E+01  0.1338E+01
 -12.800  0.2618E+01  0.1364E+01
 -12.790  0.2633E+01  0.1391E+01
 -12.780  0.2653E+01  0.1417E+01
 -12.770  0.2674E+01  0.1444E+01
 -12.760  0.2695E+01  0.1471E+01
 -12.750  0.2719E+01  0.1498E+01
 -12.740  0.2744E+01  0.1525E+01
 -12.730  0.2766E+01  0.1552E+01
 -12.720  0.2785E+01  0.1580E+01
 -12.710  0.2812E+01  0.1608E+01
 -12.700  0.2840E+01  0.1636E+01
 -12.690  0.2863E+01  0.1665E+01
 -12.680  0.2891E+01  0.1694E+01
 -12.670  0.2922E+01  0.1723E+01
 -12.660  0.2946E+01  0.1752E+01
 -12.650  0.2974E+01  0.1782E+01
 -12.640  0.3012E+01  0.1812E+01
 -12.630  0.3041E+01  0.1842E+01
 -12.620  0.3071E+01  0.1872E+01
 -12.610  0.3113E+01  0.1903E+01
 -12.600  0.3145E+01  0.1935E+01
 -12.590  0.3178E+01  0.1966E+01
 -12.580  0.3226E+01  0.1998E+01
 -12.570  0.3264E+01  0.2031E+01
 -12.560  0.3303E+01  0.2064E+01
 -12.550  0.3356E+01  0.2097E+01
 -12.540  0.3400E+01  0.2131E+01
 -12.530  0.3445E+01  0.2165E+01
 -12.520  0.3508E+01  0.2200E+01
 -12.510  0.3560E+01  0.2235E+01
 -12.500  0.3618E+01  0.2271E+01
 -12.490  0.3690E+01  0.2307E+01
 -12.480  0.3753E+01  0.2345E+01
 -12.470  0.3834E+01  0.2383E+01
 -12.460  0.3917E+01  0.2421E+01
 -12.450  0.3999E+01  0.2461E+01
 -12.440  0.4106E+01  0.2501E+01
 -12.430  0.4211E+01  0.2543E+01
 -12.420  0.4342E+01  0.2586E+01
 -12.410  0.4483E+01  0.2630E+01
 -12.400  0.4654E+01  0.2675E+01
 -12.390  0.4853E+01  0.2723E+01
 -12.380  0.5102E+01  0.2773E+01
 -12.370  0.5446E+01  0.2825E+01
 -12.360  0.6022E+01  0.2882E+01
 -12.350  0.7023E+01  0.2948E+01
 -12.340  0.6582E+01  0.3018E+01
 -12.330  0.6388E+01  0.3082E+01
 -12.320  0.6865E+01  0.3150E+01
 -12.310  0.6151E+01  0.3216E+01
 -12.300  0.5307E+01  0.3273E+01
 -12.290  0.4817E+01  0.3324E+01
 -12.280  0.4480E+01  0.3370E+01
 -12.270  0.4205E+01  0.3413E+01
 -12.260  0.3942E+01  0.3454E+01
 -12.250  0.3720E+01  0.3492E+01
 -12.240  0.3514E+01  0.3528E+01
 -12.230  0.3369E+01  0.3563E+01
 -12.220  0.3162E+01  0.3595E+01
 -12.210  0.3021E+01  0.3626E+01
 -12.200  0.2872E+01  0.3656E+01
 -12.190  0.2711E+01  0.3684E+01
 -12.180  0.2623E+01  0.3710E+01
 -12.170  0.2472E+01  0.3736E+01
 -12.160  0.2335E+01  0.3760E+01
 -12.150  0.2246E+01  0.3782E+01
 -12.140  0.2092E+01  0.3804E+01
 -12.130  0.1983E+01  0.3825E+01
 -12.120  0.1903E+01  0.3844E+01
 -12.110  0.1760E+01  0.3862E+01
 -12.100  0.1630E+01  0.3879E+01
 -12.090  0.1581E+01  0.3895E+01
 -12.080  0.1442E+01  0.3910E+01
 -12.070  0.1318E+01  0.3924E+01
 -12.060  0.1228E+01  0.3937E+01
 -12.050  0.1132E+01  0.3949E+01
 -12.040  0.9937E+00  0.3959E+01
 -12.030  0.9325E+00  0.3969E+01
 -12.020  0.7710E+00  0.3977E+01
 -12.010  0.6964E+00  0.3984E+01
 -12.000  0.5735E+00  0.3991E+01
 -11.990  0.3118E+00  0.3995E+01
 -11.980  0.2763E+00  0.3998E+01
 -11.970  0.9664E-01  0.3999E+01
 -11.960  0.1707E-01  0.4000E+01
 -11.950  0.3514E-01  0.4000E+01
 -11.940  0.1249E+00  0.4001E+01
 -11.930  0.3186E+00  0.4003E+01
 -11.920  0.3883E+00  0.4006E+01
 -11.910  0.7300E+00  0.4012E+01
 -11.900  0.8309E+00  0.4020E+01
 -11.890  0.1015E+01  0.4029E+01
 -11.880  0.1191E+01  0.4040E+01
 -11.870  0.1381E+01  0.4053E+01
 -11.860  0.1571E+01  0.4068E+01
 -11.850  0.1818E+01  0.4084E+01
 -11.840  0.2084E+01  0.4104E+01
 -11.830  0.2284E+01  0.4126E+01
 -11.820  0.2598E+01  0.4150E+01
 -11.810  0.2912E+01  0.4177E+01
 -11.800  0.3221E+01  0.4208E+01
 -11.790  0.3612E+01  0.4242E+01
 -11.780  0.4068E+01  0.4281E+01
 -11.770  0.4599E+01  0.4324E+01
 -11.760  0.5155E+01  0.4372E+01
 -11.750  0.5897E+01  0.4428E+01
 -11.740  0.6894E+01  0.4492E+01
 -11.730  0.8361E+01  0.4567E+01
 -11.720  0.1088E+02  0.4663E+01
 -11.710  0.1112E+02  0.4777E+01
 -11.700  0.1046E+02  0.4883E+01
 -11.690  0.1159E+02  0.4992E+01
 -11.680  0.1267E+02  0.5119E+01
 -11.670  0.1105E+02  0.5238E+01
 -11.660  0.1033E+02  0.5344E+01
 -11.650  0.9985E+01  0.5446E+01
 -11.640  0.9830E+01  0.5545E+01
 -11.630  0.9807E+01  0.5643E+01
 -11.620  0.9875E+01  0.5741E+01
 -11.610  0.1005E+02  0.5840E+01
 -11.600  0.1033E+02  0.5942E+01
 -11.590  0.1074E+02  0.6047E+01
 -11.580  0.1229E+02  0.6161E+01
 -11.570  0.1517E+02  0.6297E+01
 -11.560  0.2004E+02  0.6470E+01
 -11.550  0.2844E+02  0.6737E+01
 -11.540  0.2544E+02  0.7005E+01
 -11.530  0.6017E+01  0.7230E+01
 -11.520  0.6617E+01  0.7293E+01
 -11.510  0.7594E+01  0.7364E+01
 -11.500  0.1458E+02  0.7472E+01
 -11.490  0.5422E+02  0.7710E+01
 -11.480  0.1450E+02  0.7886E+01
 -11.470  0.5707E+01  0.7993E+01
 -11.460  0.0000E+00  0.8000E+01
 -11.450  0.0000E+00  0.8000E+01
 -11.440  0.0000E+00  0.8000E+01
 -11.430  0.0000E+00  0.8000E+01
 -11.420  0.0000E+00  0.8000E+01
 -11.410  0.0000E+00  0.8000E+01
 -11.400  0.0000E+00  0.8000E+01
 -11.390  0.0000E+00  0.8000E+01
 -11.380  0.0000E+00  0.8000E+01
 -11.370  0.0000E+00  0.8000E+01
 -11.360  0.0000E+00  0.8000E+01
 -11.350  0.0000E+00  0.8000E+01
 -11.340  0.0000E+00  0.8000E+01
 -11.330  0.0000E+00  0.8000E+01
 -11.320  0.0000E+00  0.8000E+01
 -11.310  0.0000E+00  0.8000E+01
 -11.300  0.0000E+00  0.8000E+01
 -11.290  0.0000E+00  0.8000E+01
 -11.280  0.0000E+00  0.8000E+01
 -11.270  0.0000E+00  0.8000E+01
 -11.260  0.0000E+00  0.8000E+01
 -11.250  0.0000E+00  0.8000E+01
 -11.240  0.0000E+00  0.8000E+01
 -11.230  0.0000E+00  0.8000E+01
 -11.220  0.0000E+00  0.8000E+01
 -11.210  0.0000E+00  0.8000E+01
 -11.200  0.0000E+00  0.8000E+01
 -11.190  0.0000E+00  0.8000E+01
 -11.180  0.0000E+00  0.8000E+01
 -11.170  0.0000E+00  0.8000E+01
 -11.160  0.0000E+00  0.8000E+01
 -11.150  0.0000E+00  0.8000E+01
 -11.140  0.0000E+00  0.8000E+01
 -11.130  0.0000E+00  0.8000E+01
 -11.120  0.0000E+00  0.8000E+01
 -11.110  0.0000E+00  0.8000E+01
 -11.100  0.0000E+00  0.8000E+01
 -11.090  0.0000E+00  0.8000E+01
 -11.080  0.0000E+00  0.8000E+01
 -11.070  0.0000E+00  0.8000E+01
 -11.060  0.0000E+00  0.8000E+01
 -11.050  0.0000E+00  0.8000E+01
 -11.040  0.0000E+00  0.8000E+01
 -11.030  0.0000E+00  0.8000E+01
 -11.020  0.0000E+00  0.8000E+01
 -11.010  0.0000E+00  0.8000E+01
 -11.000  0.0000E+00  0.8000E+01
 -10.990  0.0000E+00  0.8000E+01
 -10.980  0.0000E+00  0.8000E+01
 -10.970  0.0000E+00  0.8000E+01
 -10.960  0.0000E+00  0.8000E+01
 -10.950  0.0000E+00  0.8000E+01
 -10.940  0.0000E+00  0.8000E+01
 -10.930  0.0000E+00  0.8000E+01
 -10.920  0.0000E+00  0.8000E+01
 -10.910  0.0000E+00  0.8000E+01
 -10.900  0.0000E+00  0.8000E+01
 -10.890  0.0000E+00  0.8000E+01
 -10.880  0.0000E+00  0.8000E+01
 -10.870  0.0000E+00  0.8000E+01
 -10.860  0.0000E+00  0.8000E+01
 -10.850  0.0000E+00  0.8000E+01
 -10.840  0.0000E+00  0.8000E+01
 -10.830  0.0000E+00  0.8000E+01
 -10.820  0.0000E+00  0.8000E+01
 -10.810  0.0000E+00  0.8000E+01
 -10.800  0.0000E+00  0.8000E+01
 -10.790  0.0000E+00  0.8000E+01
 -10.780  0.0000E+00  0.8000E+01
 -10.770  0.0000E+00  0.8000E+01
 -10.760  0.0000E+00  0.8000E+01
 -10.750  0.0000E+00  0.8000E+01
 -10.740  0.0000E+00  0.8000E+01
 -10.730  0.0000E+00  0.8000E+01
 -10.720  0.0000E+00  0.8000E+01
 -10.710  0.0000E+00  0.8000E+01
 -10.700  0.0000E+00  0.8000E+01
 -10.690  0.0000E+00  0.8000E+01
 -10.680  0.0000E+00  0.8000E+01
 -10.670  0.0000E+00  0.8000E+01
 -10.660  0.0000E+00  0.8000E+01
 -10.650  0.0000E+00  0.8000E+01
 -10.640  0.0000E+00  0.8000E+01
 -10.630  0.0000E+00  0.8000E+01
 -10.620  0.0000E+00  0.8000E+01
 -10.610  0.0000E+00  0.8000E+01
 -10.600  0.0000E+00  0.8000E+01
 -10.590  0.0000E+00  0.8000E+01
 -10.580  0.0000E+00  0.8000E+01
 -10.570  0.0000E+00  0.8000E+01
 -10.560  0.0000E+00  0.8000E+01
 -10.550  0.0000E+00  0.8000E+01
 -10.540  0.0000E+00  0.8000E+01
 -10.530  0.0000E+00  0.8000E+01
 -10.520  0.0000E+00  0.8000E+01
 -10.510  0.0000E+00  0.8000E+01
 -10.500  0.0000E+00  0.8000E+01
 -10.490  0.0000E+00  0.8000E+01
 -10.480  0.0000E+00  0.8000E+01
 -10.470  0.0000E+00  0.8000E+01
 -10.460  0.0000E+00  0.8000E+01
 -10.450  0.0000E+00  0.8000E+01
 -10.440  0.0000E+00  0.8000E+01
 -10.430  0.0000E+00  0.8000E+01
 -10.420  0.0000E+00  0.8000E+01
 -10.410  0.0000E+00  0.8000E+01
 -10.400  0.0000E+00  0.8000E+01
 -10.390  0.0000E+00  0.8000E+01
 -10.380  0.0000E+00  0.8000E+01
 -10.370  0.0000E+00  0.8000E+01
 -10.360  0.0000E+00  0.8000E+01
 -10.350  0.0000E+00  0.8000E+01
 -10.340  0.0000E+00  0.8000E+01
 -10.330  0.0000E+00  0.8000E+01
 -10.320  0.0000E+00  0.8000E+01
 -10.310  0.0000E+00  0.8000E+01
 -10.300  0.0000E+00  0.8000E+01
 -10.290  0.0000E+00  0.8000E+01
 -10.280  0.0000E+00  0.8000E+01
 -10.270  0.0000E+00  0.8000E+01
 -10.260  0.0000E+00  0.8000E+01
 -10.250  0.0000E+00  0.8000E+01
 -10.240  0.0000E+00  0.8000E+01
 -10.230  0.0000E+00  0.8000E+01
 -10.220  0.0000E+00  0.8000E+01
 -10.210  0.0000E+00  0.8000E+01
 -10.200  0.0000E+00  0.8000E+01
 -10.190  0.0000E+00  0.8000E+01
 -10.180  0.0000E+00  0.8000E+01
 -10.170  0.0000E+00  0.8000E+01
 -10.160  0.0000E+00  0.8000E+01
 -10.150  0.0000E+00  0.8000E+01
 -10.140  0.0000E+00  0.8000E+01
 -10.130  0.0000E+00  0.8000E+01
 -10.120  0.0000E+00  0.8000E+01
 -10.110  0.0000E+00  0.8000E+01
 -10.100  0.0000E+00  0.8000E+01
 -10.090  0.0000E+00  0.8000E+01
 -10.080  0.0000E+00  0.8000E+01
 -10.070  0.0000E+00  0.8000E+01
 -10.060  0.0000E+00  0.8000E+01
 -10.050  0.0000E+00  0.8000E+01
 -10.040  0.0000E+00  0.8000E+01
 -10.030  0.0000E+00  0.8000E+01
 -10.020  0.0000E+00  0.8000E+01
 -10.010  0.0000E+00  0.8000E+01
 -10.000  0.0000E+00  0.8000E+01
  -9.990  0.0000E+00  0.8000E+01
  -9.980  0.0000E+00  0.8000E+01
  -9.970  0.0000E+00  0.8000E+01
  -9.960  0.0000E+00  0.8000E+01
  -9.950  0.0000E+00  0.8000E+01
  -9.940  0.0000E+00  0.8000E+01
  -9.930  0.0000E+00  0.8000E+01
  -9.920  0.0000E+00  0.8000E+01
  -9.910  0.0000E+00  0.8000E+01
  -9.900  0.0000E+00  0.8000E+01
  -9.890  0.0000E+00  0.8000E+01
  -9.880  0.0000E+00  0.8000E+01
  -9.870  0.0000E+00  0.8000E+01
  -9.860  0.0000E+00  0.8000E+01
  -9.850  0.0000E+00  0.8000E+01
  -9.840  0.0000E+00  0.8000E+01
  -9.830  0.0000E+00  0.8000E+01
  -9.820  0.0000E+00  0.8000E+01
  -9.810  0.0000E+00  0.8000E+01
  -9.800  0.0000E+00  0.8000E+01
  -9.790  0.0000E+00  0.8000E+01
  -9.780  0.0000E+00  0.8000E+01
  -9.770  0.0000E+00  0.8000E+01
  -9.760  0.0000E+00  0.8000E+01
  -9.750  0.0000E+00  0.8000E+01
  -9.740  0.0000E+00  0.8000E+01
  -9.730  0.0000E+00  0.8000E+01
  -9.720  0.0000E+00  0.8000E+01
  -9.710  0.0000E+00  0.8000E+01
  -9.700  0.0000E+00  0.8000E+01
  -9.690  0.0000E+00  0.8000E+01
  -9.680  0.0000E+00  0.8000E+01
  -9.670  0.0000E+00  0.8000E+01
  -9.660  0.0000E+00  0.8000E+01
  -9.650  0.0000E+00  0.8000E+01
  -9.640  0.0000E+00  0.8000E+01
  -9.630  0.0000E+00  0.8000E+01
  -9.620  0.0000E+00  0.8000E+01
  -9.610  0.0000E+00  0.8000E+01
  -9.600  0.0000E+00  0.8000E+01
  -9.590  0.0000E+00  0.8000E+01
  -9.580  0.0000E+00  0.8000E+01
  -9.570  0.0000E+00  0.8000E+01
  -9.560  0.0000E+00  0.8000E+01
  -9.550  0.0000E+00  0.8000E+01
  -9.540  0.0000E+00  0.8000E+01
  -9.530  0.0000E+00  0.8000E+01
  -9.520  0.0000E+00  0.8000E+01
  -9.510  0.0000E+00  0.8000E+01
  -9.500  0.0000E+00  0.8000E+01
  -9.490  0.0000E+00  0.8000E+01
  -9.480  0.0000E+00  0.8000E+01
  -9.470  0.0000E+00  0.8000E+01
  -9.460  0.0000E+00  0.8000E+01
  -9.450  0.0000E+00  0.8000E+01
  -9.440  0.0000E+00  0.8000E+01
  -9.430  0.0000E+00  0.8000E+01
  -9.420  0.0000E+00  0.8000E+01
  -9.410  0.0000E+00  0.8000E+01
  -9.400  0.0000E+00  0.8000E+01
  -9.390  0.0000E+00  0.8000E+01
  -9.380  0.0000E+00  0.8000E+01
  -9.370  0.0000E+00  0.8000E+01
  -9.360  0.0000E+00  0.8000E+01
  -9.350  0.0000E+00  0.8000E+01
  -9.340  0.0000E+00  0.8000E+01
  -9.330  0.0000E+00  0.8000E+01
  -9.320  0.0000E+00  0.8000E+01
  -9.310  0.0000E+00  0.8000E+01
  -9.300  0.0000E+00  0.8000E+01
  -9.290  0.0000E+00  0.8000E+01
  -9.280  0.0000E+00  0.8000E+01
  -9.270  0.0000E+00  0.8000E+01
  -9.260  0.0000E+00  0.8000E+01
  -9.250  0.0000E+00  0.8000E+01
  -9.240  0.0000E+00  0.8000E+01
  -9.230  0.0000E+00  0.8000E+01
  -9.220  0.0000E+00  0.8000E+01
  -9.210  0.0000E+00  0.8000E+01
  -9.200  0.0000E+00  0.8000E+01
  -9.190  0.0000E+00  0.8000E+01
  -9.180  0.0000E+00  0.8000E+01
  -9.170  0.0000E+00  0.8000E+01
  -9.160  0.0000E+00  0.8000E+01
  -9.150  0.0000E+00  0.8000E+01
  -9.140  0.0000E+00  0.8000E+01
  -9.130  0.0000E+00  0.8000E+01
  -9.120  0.0000E+00  0.8000E+01
  -9.110  0.0000E+00  0.8000E+01
  -9.100  0.0000E+00  0.8000E+01
  -9.090  0.0000E+00  0.8000E+01
  -9.080  0.0000E+00  0.8000E+01
  -9.070  0.0000E+00  0.8000E+01
  -9.060  0.0000E+00  0.8000E+01
  -9.050  0.0000E+00  0.8000E+01
  -9.040  0.0000E+00  0.8000E+01
  -9.030  0.0000E+00  0.8000E+01
  -9.020  0.0000E+00  0.8000E+01
  -9.010  0.0000E+00  0.8000E+01
  -9.000  0.0000E+00  0.8000E+01
  -8.990  0.0000E+00  0.8000E+01
  -8.980  0.0000E+00  0.8000E+01
  -8.970  0.0000E+00  0.8000E+01
  -8.960  0.0000E+00  0.8000E+01
  -8.950  0.0000E+00  0.8000E+01
  -8.940  0.0000E+00  0.8000E+01
  -8.930  0.0000E+00  0.8000E+01
  -8.920  0.0000E+00  0.8000E+01
  -8.910  0.0000E+00  0.8000E+01
  -8.900  0.0000E+00  0.8000E+01
  -8.890  0.0000E+00  0.8000E+01
  -8.880  0.0000E+00  0.8000E+01
  -8.870  0.0000E+00  0.8000E+01
  -8.860  0.0000E+00  0.8000E+01
  -8.850  0.0000E+00  0.8000E+01
  -8.840  0.0000E+00  0.8000E+01
  -8.830  0.0000E+00  0.8000E+01
  -8.820  0.0000E+00  0.8000E+01
  -8.810  0.0000E+00  0.8000E+01
  -8.800  0.0000E+00  0.8000E+01
  -8.790  0.0000E+00  0.8000E+01
  -8.780  0.0000E+00  0.8000E+01
  -8.770  0.0000E+00  0.8000E+01
  -8.760  0.0000E+00  0.8000E+01
  -8.750  0.0000E+00  0.8000E+01
  -8.740  0.0000E+00  0.8000E+01
  -8.730  0.0000E+00  0.8000E+01
  -8.720  0.0000E+00  0.8000E+01
  -8.710  0.0000E+00  0.8000E+01
  -8.700  0.0000E+00  0.8000E+01
  -8.690  0.0000E+00  0.8000E+01
  -8.680  0.0000E+00  0.8000E+01
  -8.670  0.0000E+00  0.8000E+01
  -8.660  0.0000E+00  0.8000E+01
  -8.650  0.0000E+00  0.8000E+01
  -8.640  0.0000E+00  0.8000E+01
  -8.630  0.0000E+00  0.8000E+01
  -8.620  0.0000E+00  0.8000E+01
  -8.610  0.0000E+00  0.8000E+01
  -8.600  0.0000E+00  0.8000E+01
  -8.590  0.0000E+00  0.8000E+01
  -8.580  0.0000E+00  0.8000E+01
  -8.570  0.0000E+00  0.8000E+01
  -8.560  0.0000E+00  0.8000E+01
  -8.550  0.0000E+00  0.8000E+01
  -8.540  0.0000E+00  0.8000E+01
  -8.530  0.0000E+00  0.8000E+01
  -8.520  0.0000E+00  0.8000E+01
  -8.510  0.0000E+00  0.8000E+01
  -8.500  0.0000E+00  0.8000E+01
  -8.490  0.0000E+00  0.8000E+01
  -8.480  0.0000E+00  0.8000E+01
  -8.470  0.0000E+00  0.8000E+01
  -8.460  0.0000E+00  0.8000E+01
  -8.450  0.0000E+00  0.8000E+01
  -8.440  0.0000E+00  0.8000E+01
  -8.430  0.0000E+00  0.8000E+01
  -8.420  0.0000E+00  0.8000E+01
  -8.410  0.0000E+00  0.8000E+01
  -8.400  0.0000E+00  0.8000E+01
  -8.390  0.0000E+00  0.8000E+01
  -8.380  0.0000E+00  0.8000E+01
  -8.370  0.0000E+00  0.8000E+01
  -8.360  0.0000E+00  0.8000E+01
  -8.350  0.0000E+00  0.8000E+01
  -8.340  0.0000E+00  0.8000E+01
  -8.330  0.0000E+00  0.8000E+01
  -8.320  0.0000E+00  0.8000E+01
  -8.310  0.0000E+00  0.8000E+01
  -8.300  0.0000E+00  0.8000E+01
  -8.290  0.0000E+00  0.8000E+01
  -8.280  0.0000E+00  0.8000E+01
  -8.270  0.0000E+00  0.8000E+01
  -8.260  0.0000E+00  0.8000E+01
  -8.250  0.0000E+00  0.8000E+01
  -8.240  0.0000E+00  0.8000E+01
  -8.230  0.0000E+00  0.8000E+01
  -8.220  0.0000E+00  0.8000E+01
  -8.210  0.0000E+00  0.8000E+01
  -8.200  0.0000E+00  0.8000E+01
  -8.190  0.0000E+00  0.8000E+01
  -8.180  0.0000E+00  0.8000E+01
  -8.170  0.0000E+00  0.8000E+01
  -8.160  0.0000E+00  0.8000E+01
  -8.150  0.0000E+00  0.8000E+01
  -8.140  0.0000E+00  0.8000E+01
  -8.130  0.0000E+00  0.8000E+01
  -8.120  0.0000E+00  0.8000E+01
  -8.110  0.0000E+00  0.8000E+01
  -8.100  0.0000E+00  0.8000E+01
  -8.090  0.0000E+00  0.8000E+01
  -8.080  0.0000E+00  0.8000E+01
  -8.070  0.0000E+00  0.8000E+01
  -8.060  0.0000E+00  0.8000E+01
  -8.050  0.0000E+00  0.8000E+01
  -8.040  0.0000E+00  0.8000E+01
  -8.030  0.0000E+00  0.8000E+01
  -8.020  0.0000E+00  0.8000E+01
  -8.010  0.0000E+00  0.8000E+01
  -8.000  0.0000E+00  0.8000E+01
  -7.990  0.0000E+00  0.8000E+01
  -7.980  0.0000E+00  0.8000E+01
  -7.970  0.0000E+00  0.8000E+01
  -7.960  0.0000E+00  0.8000E+01
  -7.950  0.0000E+00  0.8000E+01
  -7.940  0.0000E+00  0.8000E+01
  -7.930  0.0000E+00  0.8000E+01
  -7.920  0.0000E+00  0.8000E+01
  -7.910  0.0000E+00  0.8000E+01
  -7.900  0.0000E+00  0.8000E+01
  -7.890  0.0000E+00  0.8000E+01
  -7.880  0.0000E+00  0.8000E+01
  -7.870  0.0000E+00  0.8000E+01
  -7.860  0.0000E+00  0.8000E+01
  -7.850  0.0000E+00  0.8000E+01
  -7.840  0.0000E+00  0.8000E+01
  -7.830  0.0000E+00  0.8000E+01
  -7.820  0.0000E+00  0.8000E+01
  -7.810  0.0000E+00  0.8000E+01
  -7.800  0.0000E+00  0.8000E+01
  -7.790  0.0000E+00  0.8000E+01
  -7.780  0.0000E+00  0.8000E+01
  -7.770  0.0000E+00  0.8000E+01
  -7.760  0.0000E+00  0.8000E+01
  -7.750  0.0000E+00  0.8000E+01
  -7.740  0.0000E+00  0.8000E+01
  -7.730  0.0000E+00  0.8000E+01
  -7.720  0.0000E+00  0.8000E+01
  -7.710  0.0000E+00  0.8000E+01
  -7.700  0.0000E+00  0.8000E+01
  -7.690  0.0000E+00  0.8000E+01
  -7.680  0.0000E+00  0.8000E+01
  -7.670  0.0000E+00  0.8000E+01
  -7.660  0.0000E+00  0.8000E+01
  -7.650  0.0000E+00  0.8000E+01
  -7.640  0.0000E+00  0.8000E+01
  -7.630  0.0000E+00  0.8000E+01
  -7.620  0.0000E+00  0.8000E+01
  -7.610  0.0000E+00  0.8000E+01
  -7.600  0.0000E+00  0.8000E+01
  -7.590  0.0000E+00  0.8000E+01
  -7.580  0.0000E+00  0.8000E+01
  -7.570  0.0000E+00  0.8000E+01
  -7.560  0.0000E+00  0.8000E+01
  -7.550  0.0000E+00  0.8000E+01
  -7.540  0.0000E+00  0.8000E+01
  -7.530  0.0000E+00  0.8000E+01
  -7.520  0.0000E+00  0.8000E+01
  -7.510  0.0000E+00  0.8000E+01
  -7.500  0.0000E+00  0.8000E+01
  -7.490  0.0000E+00  0.8000E+01
  -7.480  0.0000E+00  0.8000E+01
  -7.470  0.0000E+00  0.8000E+01
  -7.460  0.0000E+00  0.8000E+01
  -7.450  0.0000E+00  0.8000E+01
  -7.440  0.0000E+00  0.8000E+01
  -7.430  0.0000E+00  0.8000E+01
  -7.420  0.0000E+00  0.8000E+01
  -7.410  0.0000E+00  0.8000E+01
  -7.400  0.0000E+00  0.8000E+01
  -7.390  0.0000E+00  0.8000E+01
  -7.380  0.0000E+00  0.8000E+01
  -7.370  0.0000E+00  0.8000E+01
  -7.360  0.0000E+00  0.8000E+01
  -7.350  0.0000E+00  0.8000E+01
  -7.340  0.0000E+00  0.8000E+01
  -7.330  0.0000E+00  0.8000E+01
  -7.320  0.0000E+00  0.8000E+01
  -7.310  0.0000E+00  0.8000E+01
  -7.300  0.0000E+00  0.8000E+01
  -7.290  0.0000E+00  0.8000E+01
  -7.280  0.0000E+00  0.8000E+01
  -7.270  0.0000E+00  0.8000E+01
  -7.260  0.0000E+00  0.8000E+01
  -7.250  0.0000E+00  0.8000E+01
  -7.240  0.0000E+00  0.8000E+01
  -7.230  0.0000E+00  0.8000E+01
  -7.220  0.0000E+00  0.8000E+01
  -7.210  0.0000E+00  0.8000E+01
  -7.200  0.0000E+00  0.8000E+01
  -7.190  0.0000E+00  0.8000E+01
  -7.180  0.0000E+00  0.8000E+01
  -7.170  0.0000E+00  0.8000E+01
  -7.160  0.0000E+00  0.8000E+01
  -7.150  0.0000E+00  0.8000E+01
  -7.140  0.0000E+00  0.8000E+01
  -7.130  0.0000E+00  0.8000E+01
  -7.120  0.0000E+00  0.8000E+01
  -7.110  0.0000E+00  0.8000E+01
  -7.100  0.0000E+00  0.8000E+01
  -7.090  0.0000E+00  0.8000E+01
  -7.080  0.0000E+00  0.8000E+01
  -7.070  0.0000E+00  0.8000E+01
  -7.060  0.0000E+00  0.8000E+01
  -7.050  0.0000E+00  0.8000E+01
  -7.040  0.0000E+00  0.8000E+01
  -7.030  0.0000E+00  0.8000E+01
  -7.020  0.0000E+00  0.8000E+01
  -7.010  0.0000E+00  0.8000E+01
  -7.000  0.0000E+00  0.8000E+01
  -6.990  0.0000E+00  0.8000E+01
  -6.980  0.0000E+00  0.8000E+01
  -6.970  0.0000E+00  0.8000E+01
  -6.960  0.0000E+00  0.8000E+01
  -6.950  0.0000E+00  0.8000E+01
  -6.940  0.0000E+00  0.8000E+01
  -6.930  0.0000E+00  0.8000E+01
  -6.920  0.0000E+00  0.8000E+01
  -6.910  0.0000E+00  0.8000E+01
  -6.900  0.0000E+00  0.8000E+01
  -6.890  0.0000E+00  0.8000E+01
  -6.880  0.0000E+00  0.8000E+01
  -6.870  0.0000E+00  0.8000E+01
  -6.860  0.0000E+00  0.8000E+01
  -6.850  0.0000E+00  0.8000E+01
  -6.840  0.0000E+00  0.8000E+01
  -6.830  0.0000E+00  0.8000E+01
  -6.820  0.0000E+00  0.8000E+01
  -6.810  0.0000E+00  0.8000E+01
  -6.800  0.0000E+00  0.8000E+01
  -6.790  0.0000E+00  0.8000E+01
  -6.780  0.0000E+00  0.8000E+01
  -6.770  0.0000E+00  0.8000E+01
  -6.760  0.0000E+00  0.8000E+01
  -6.750  0.0000E+00  0.8000E+01
  -6.740  0.0000E+00  0.8000E+01
  -6.730  0.0000E+00  0.8000E+01
  -6.720  0.0000E+00  0.8000E+01
  -6.710  0.0000E+00  0.8000E+01
  -6.700  0.0000E+00  0.8000E+01
  -6.690  0.0000E+00  0.8000E+01
  -6.680  0.0000E+00  0.8000E+01
  -6.670  0.0000E+00  0.8000E+01
  -6.660  0.0000E+00  0.8000E+01
  -6.650  0.0000E+00  0.8000E+01
  -6.640  0.0000E+00  0.8000E+01
  -6.630  0.0000E+00  0.8000E+01
  -6.620  0.0000E+00  0.8000E+01
  -6.610  0.0000E+00  0.8000E+01
  -6.600  0.0000E+00  0.8000E+01
  -6.590  0.0000E+00  0.8000E+01
  -6.580  0.0000E+00  0.8000E+01
  -6.570  0.0000E+00  0.8000E+01
  -6.560  0.0000E+00  0.8000E+01
  -6.550  0.0000E+00  0.8000E+01
  -6.540  0.0000E+00  0.8000E+01
  -6.530  0.0000E+00  0.8000E+01
  -6.520  0.0000E+00  0.8000E+01
  -6.510  0.0000E+00  0.8000E+01
  -6.500  0.0000E+00  0.8000E+01
  -6.490  0.0000E+00  0.8000E+01
  -6.480  0.0000E+00  0.8000E+01
  -6.470  0.0000E+00  0.8000E+01
  -6.460  0.0000E+00  0.8000E+01
  -6.450  0.0000E+00  0.8000E+01
  -6.440  0.0000E+00  0.8000E+01
  -6.430  0.0000E+00  0.8000E+01
  -6.420  0.0000E+00  0.8000E+01
  -6.410  0.0000E+00  0.8000E+01
  -6.400  0.0000E+00  0.8000E+01
  -6.390  0.0000E+00  0.8000E+01
  -6.380  0.0000E+00  0.8000E+01
  -6.370  0.0000E+00  0.8000E+01
  -6.360  0.0000E+00  0.8000E+01
  -6.350  0.0000E+00  0.8000E+01
  -6.340  0.0000E+00  0.8000E+01
  -6.330  0.0000E+00  0.8000E+01
  -6.320  0.0000E+00  0.8000E+01
  -6.310  0.0000E+00  0.8000E+01
  -6.300  0.0000E+00  0.8000E+01
  -6.290  0.0000E+00  0.8000E+01
  -6.280  0.0000E+00  0.8000E+01
  -6.270  0.0000E+00  0.8000E+01
  -6.260  0.0000E+00  0.8000E+01
  -6.250  0.0000E+00  0.8000E+01
  -6.240  0.0000E+00  0.8000E+01
  -6.230  0.0000E+00  0.8000E+01
  -6.220  0.0000E+00  0.8000E+01
  -6.210  0.0000E+00  0.8000E+01
  -6.200  0.0000E+00  0.8000E+01
  -6.190  0.0000E+00  0.8000E+01
  -6.180  0.0000E+00  0.8000E+01
  -6.170  0.0000E+00  0.8000E+01
  -6.160  0.0000E+00  0.8000E+01
  -6.150  0.0000E+00  0.8000E+01
  -6.140  0.0000E+00  0.8000E+01
  -6.130  0.0000E+00  0.8000E+01
  -6.120  0.0000E+00  0.8000E+01
  -6.110  0.0000E+00  0.8000E+01
  -6.100  0.0000E+00  0.8000E+01
  -6.090  0.0000E+00  0.8000E+01
  -6.080  0.0000E+00  0.8000E+01
  -6.070  0.0000E+00  0.8000E+01
  -6.060  0.0000E+00  0.8000E+01
  -6.050  0.0000E+00  0.8000E+01
  -6.040  0.0000E+00  0.8000E+01
  -6.030  0.0000E+00  0.8000E+01
  -6.020  0.0000E+00  0.8000E+01
  -6.010  0.0000E+00  0.8000E+01
  -6.000  0.0000E+00  0.8000E+01
  -5.990  0.0000E+00  0.8000E+01
  -5.980  0.0000E+00  0.8000E+01
  -5.970  0.0000E+00  0.8000E+01
  -5.960  0.0000E+00  0.8000E+01
  -5.950  0.0000E+00  0.8000E+01
  -5.940  0.0000E+00  0.8000E+01
  -5.930  0.0000E+00  0.8000E+01
  -5.920  0.0000E+00  0.8000E+01
  -5.910  0.0000E+00  0.8000E+01
  -5.900  0.0000E+00  0.8000E+01
  -5.890  0.0000E+00  0.8000E+01
  -5.880  0.0000E+00  0.8000E+01
  -5.870  0.0000E+00  0.8000E+01
  -5.860  0.0000E+00  0.8000E+01
  -5.850  0.0000E+00  0.8000E+01
  -5.840  0.0000E+00  0.8000E+01
  -5.830  0.0000E+00  0.8000E+01
  -5.820  0.0000E+00  0.8000E+01
  -5.810  0.0000E+00  0.8000E+01
  -5.800  0.0000E+00  0.8000E+01
  -5.790  0.0000E+00  0.8000E+01
  -5.780  0.0000E+00  0.8000E+01
  -5.770  0.0000E+00  0.8000E+01
  -5.760  0.0000E+00  0.8000E+01
  -5.750  0.0000E+00  0.8000E+01
  -5.740  0.0000E+00  0.8000E+01
  -5.730  0.0000E+00  0.8000E+01
  -5.720  0.0000E+00  0.8000E+01
  -5.710  0.0000E+00  0.8000E+01
  -5.700  0.0000E+00  0.8000E+01
  -5.690  0.0000E+00  0.8000E+01
  -5.680  0.0000E+00  0.8000E+01
  -5.670  0.0000E+00  0.8000E+01
  -5.660  0.0000E+00  0.8000E+01
  -5.650  0.0000E+00  0.8000E+01
  -5.640  0.0000E+00  0.8000E+01
  -5.630  0.0000E+00  0.8000E+01
  -5.620  0.0000E+00  0.8000E+01
  -5.610  0.0000E+00  0.8000E+01
  -5.600  0.0000E+00  0.8000E+01
  -5.590  0.0000E+00  0.8000E+01
  -5.580  0.0000E+00  0.8000E+01
  -5.570  0.0000E+00  0.8000E+01
  -5.560  0.0000E+00  0.8000E+01
  -5.550  0.0000E+00  0.8000E+01
  -5.540  0.0000E+00  0.8000E+01
  -5.530  0.0000E+00  0.8000E+01
  -5.520  0.0000E+00  0.8000E+01
  -5.510  0.0000E+00  0.8000E+01
  -5.500  0.0000E+00  0.8000E+01
  -5.490  0.0000E+00  0.8000E+01
  -5.480  0.0000E+00  0.8000E+01
  -5.470  0.0000E+00  0.8000E+01
  -5.460  0.0000E+00  0.8000E+01
  -5.450  0.0000E+00  0.8000E+01
  -5.440  0.0000E+00  0.8000E+01
  -5.430  0.0000E+00  0.8000E+01
  -5.420  0.0000E+00  0.8000E+01
  -5.410  0.0000E+00  0.8000E+01
  -5.400  0.0000E+00  0.8000E+01
  -5.390  0.0000E+00  0.8000E+01
  -5.380  0.0000E+00  0.8000E+01
  -5.370  0.0000E+00  0.8000E+01
  -5.360  0.0000E+00  0.8000E+01
  -5.350  0.0000E+00  0.8000E+01
  -5.340  0.0000E+00  0.8000E+01
  -5.330  0.0000E+00  0.8000E+01
  -5.320  0.0000E+00  0.8000E+01
  -5.310  0.0000E+00  0.8000E+01
  -5.300  0.0000E+00  0.8000E+01
  -5.290  0.0000E+00  0.8000E+01
  -5.280  0.0000E+00  0.8000E+01
  -5.270  0.0000E+00  0.8000E+01
  -5.260  0.0000E+00  0.8000E+01
  -5.250  0.0000E+00  0.8000E+01
  -5.240  0.0000E+00  0.8000E+01
  -5.230  0.0000E+00  0.8000E+01
  -5.220  0.0000E+00  0.8000E+01
  -5.210  0.0000E+00  0.8000E+01
  -5.200  0.0000E+00  0.8000E+01
  -5.190  0.0000E+00  0.8000E+01
  -5.180  0.0000E+00  0.8000E+01
  -5.170  0.0000E+00  0.8000E+01
  -5.160  0.0000E+00  0.8000E+01
  -5.150  0.0000E+00  0.8000E+01
  -5.140  0.0000E+00  0.8000E+01
  -5.130  0.0000E+00  0.8000E+01
  -5.120  0.0000E+00  0.8000E+01
  -5.110  0.0000E+00  0.8000E+01
  -5.100  0.0000E+00  0.8000E+01
  -5.090  0.0000E+00  0.8000E+01
  -5.080  0.0000E+00  0.8000E+01
  -5.070  0.0000E+00  0.8000E+01
  -5.060  0.0000E+00  0.8000E+01
  -5.050  0.0000E+00  0.8000E+01
  -5.040  0.0000E+00  0.8000E+01
  -5.030  0.0000E+00  0.8000E+01
  -5.020  0.0000E+00  0.8000E+01
  -5.010  0.0000E+00  0.8000E+01
  -5.000  0.0000E+00  0.8000E+01
  -4.990  0.0000E+00  0.8000E+01
  -4.980  0.0000E+00  0.8000E+01
  -4.970  0.0000E+00  0.8000E+01
  -4.960  0.0000E+00  0.8000E+01
  -4.950  0.0000E+00  0.8000E+01
  -4.940  0.0000E+00  0.8000E+01
  -4.930  0.0000E+00  0.8000E+01
  -4.920  0.0000E+00  0.8000E+01
  -4.910  0.0000E+00  0.8000E+01
  -4.900  0.0000E+00  0.8000E+01
  -4.890  0.0000E+00  0.8000E+01
  -4.880  0.0000E+00  0.8000E+01
  -4.870  0.0000E+00  0.8000E+01
  -4.860  0.0000E+00  0.8000E+01
  -4.850  0.0000E+00  0.8000E+01
  -4.840  0.0000E+00  0.8000E+01
  -4.830  0.0000E+00  0.8000E+01
  -4.820  0.0000E+00  0.8000E+01
  -4.810  0.0000E+00  0.8000E+01
  -4.800  0.0000E+00  0.8000E+01
  -4.790  0.0000E+00  0.8000E+01
  -4.780  0.0000E+00  0.8000E+01
  -4.770  0.0000E+00  0.8000E+01
  -4.760  0.0000E+00  0.8000E+01
  -4.750  0.0000E+00  0.8000E+01
  -4.740  0.0000E+00  0.8000E+01
  -4.730  0.0000E+00  0.8000E+01
  -4.720  0.0000E+00  0.8000E+01
  -4.710  0.0000E+00  0.8000E+01
  -4.700  0.0000E+00  0.8000E+01
  -4.690  0.0000E+00  0.8000E+01
  -4.680  0.0000E+00  0.8000E+01
  -4.670  0.0000E+00  0.8000E+01
  -4.660  0.0000E+00  0.8000E+01
  -4.650  0.0000E+00  0.8000E+01
  -4.640  0.0000E+00  0.8000E+01
  -4.630  0.0000E+00  0.8000E+01
  -4.620  0.0000E+00  0.8000E+01
  -4.610  0.0000E+00  0.8000E+01
  -4.600  0.0000E+00  0.8000E+01
  -4.590  0.0000E+00  0.8000E+01
  -4.580  0.0000E+00  0.8000E+01
  -4.570  0.0000E+00  0.8000E+01
  -4.560  0.0000E+00  0.8000E+01
  -4.550  0.0000E+00  0.8000E+01
  -4.540  0.0000E+00  0.8000E+01
  -4.530  0.0000E+00  0.8000E+01
  -4.520  0.0000E+00  0.8000E+01
  -4.510  0.0000E+00  0.8000E+01
  -4.500  0.0000E+00  0.8000E+01
  -4.490  0.0000E+00  0.8000E+01
  -4.480  0.0000E+00  0.8000E+01
  -4.470  0.0000E+00  0.8000E+01
  -4.460  0.0000E+00  0.8000E+01
  -4.450  0.0000E+00  0.8000E+01
  -4.440  0.0000E+00  0.8000E+01
  -4.430  0.0000E+00  0.8000E+01
  -4.420  0.0000E+00  0.8000E+01
  -4.410  0.0000E+00  0.8000E+01
  -4.400  0.0000E+00  0.8000E+01
  -4.390  0.0000E+00  0.8000E+01
  -4.380  0.0000E+00  0.8000E+01
  -4.370  0.0000E+00  0.8000E+01
  -4.360  0.0000E+00  0.8000E+01
  -4.350  0.0000E+00  0.8000E+01
  -4.340  0.0000E+00  0.8000E+01
  -4.330  0.0000E+00  0.8000E+01
  -4.320  0.0000E+00  0.8000E+01
  -4.310  0.0000E+00  0.8000E+01
  -4.300  0.0000E+00  0.8000E+01
  -4.290  0.0000E+00  0.8000E+01
  -4.280  0.0000E+00  0.8000E+01
  -4.270  0.0000E+00  0.8000E+01
  -4.260  0.0000E+00  0.8000E+01
  -4.250  0.0000E+00  0.8000E+01
  -4.240  0.0000E+00  0.8000E+01
  -4.230  0.0000E+00  0.8000E+01
  -4.220  0.0000E+00  0.8000E+01
  -4.210  0.0000E+00  0.8000E+01
  -4.200  0.0000E+00  0.8000E+01
  -4.190  0.0000E+00  0.8000E+01
  -4.180  0.0000E+00  0.8000E+01
  -4.170  0.0000E+00  0.8000E+01
  -4.160  0.0000E+00  0.8000E+01
  -4.150  0.0000E+00  0.8000E+01
  -4.140  0.0000E+00  0.8000E+01
  -4.130  0.0000E+00  0.8000E+01
  -4.120  0.0000E+00  0.8000E+01
  -4.110  0.0000E+00  0.8000E+01
  -4.100  0.0000E+00  0.8000E+01
  -4.090  0.0000E+00  0.8000E+01
  -4.080  0.0000E+00  0.8000E+01
  -4.070  0.0000E+00  0.8000E+01
  -4.060  0.0000E+00  0.8000E+01
  -4.050  0.0000E+00  0.8000E+01
  -4.040  0.0000E+00  0.8000E+01
  -4.030  0.0000E+00  0.8000E+01
  -4.020  0.0000E+00  0.8000E+01
  -4.010  0.0000E+00  0.8000E+01
  -4.000  0.0000E+00  0.8000E+01
  -3.990  0.0000E+00  0.8000E+01
  -3.980  0.0000E+00  0.8000E+01
  -3.970  0.0000E+00  0.8000E+01
  -3.960  0.0000E+00  0.8000E+01
  -3.950  0.0000E+00  0.8000E+01
  -3.940  0.0000E+00  0.8000E+01
  -3.930  0.0000E+00  0.8000E+01
  -3.920  0.0000E+00  0.8000E+01
  -3.910  0.0000E+00  0.8000E+01
  -3.900  0.0000E+00  0.8000E+01
  -3.890  0.0000E+00  0.8000E+01
  -3.880  0.0000E+00  0.8000E+01
  -3.870  0.0000E+00  0.8000E+01
  -3.860  0.0000E+00  0.8000E+01
  -3.850  0.0000E+00  0.8000E+01
  -3.840  0.0000E+00  0.8000E+01
  -3.830  0.0000E+00  0.8000E+01
  -3.820  0.0000E+00  0.8000E+01
  -3.810  0.0000E+00  0.8000E+01
  -3.800  0.0000E+00  0.8000E+01
  -3.790  0.0000E+00  0.8000E+01
  -3.780  0.0000E+00  0.8000E+01
  -3.770  0.0000E+00  0.8000E+01
  -3.760  0.0000E+00  0.8000E+01
  -3.750  0.0000E+00  0.8000E+01
  -3.740  0.0000E+00  0.8000E+01
  -3.730  0.0000E+00  0.8000E+01
  -3.720  0.0000E+00  0.8000E+01
  -3.710  0.0000E+00  0.8000E+01
  -3.700  0.0000E+00  0.8000E+01
  -3.690  0.0000E+00  0.8000E+01
  -3.680  0.0000E+00  0.8000E+01
  -3.670  0.0000E+00  0.8000E+01
  -3.660  0.0000E+00  0.8000E+01
  -3.650  0.0000E+00  0.8000E+01
  -3.640  0.0000E+00  0.8000E+01
  -3.630  0.0000E+00  0.8000E+01
  -3.620  0.0000E+00  0.8000E+01
  -3.610  0.0000E+00  0.8000E+01
  -3.600  0.0000E+00  0.8000E+01
  -3.590  0.0000E+00  0.8000E+01
  -3.580  0.0000E+00  0.8000E+01
  -3.570  0.0000E+00  0.8000E+01
  -3.560  0.0000E+00  0.8000E+01
  -3.550  0.0000E+00  0.8000E+01
  -3.540  0.0000E+00  0.8000E+01
  -3.530  0.0000E+00  0.8000E+01
  -3.520  0.0000E+00  0.8000E+01
  -3.510  0.0000E+00  0.8000E+01
  -3.500  0.0000E+00  0.8000E+01
  -3.490  0.0000E+00  0.8000E+01
  -3.480  0.0000E+00  0.8000E+01
  -3.470  0.0000E+00  0.8000E+01
  -3.460  0.0000E+00  0.8000E+01
  -3.450  0.0000E+00  0.8000E+01
  -3.440  0.0000E+00  0.8000E+01
  -3.430  0.0000E+00  0.8000E+01
  -3.420  0.0000E+00  0.8000E+01
  -3.410  0.0000E+00  0.8000E+01
  -3.400  0.0000E+00  0.8000E+01
  -3.390  0.0000E+00  0.8000E+01
  -3.380  0.0000E+00  0.8000E+01
  -3.370  0.0000E+00  0.8000E+01
  -3.360  0.0000E+00  0.8000E+01
  -3.350  0.0000E+00  0.8000E+01
  -3.340  0.0000E+00  0.8000E+01
  -3.330  0.0000E+00  0.8000E+01
  -3.320  0.0000E+00  0.8000E+01
  -3.310  0.0000E+00  0.8000E+01
  -3.300  0.0000E+00  0.8000E+01
  -3.290  0.0000E+00  0.8000E+01
  -3.280  0.0000E+00  0.8000E+01
  -3.270  0.0000E+00  0.8000E+01
  -3.260  0.0000E+00  0.8000E+01
  -3.250  0.0000E+00  0.8000E+01
  -3.240  0.0000E+00  0.8000E+01
  -3.230  0.0000E+00  0.8000E+01
  -3.220  0.0000E+00  0.8000E+01
  -3.210  0.0000E+00  0.8000E+01
  -3.200  0.0000E+00  0.8000E+01
  -3.190  0.0000E+00  0.8000E+01
  -3.180  0.0000E+00  0.8000E+01
  -3.170  0.0000E+00  0.8000E+01
  -3.160  0.0000E+00  0.8000E+01
  -3.150  0.0000E+00  0.8000E+01
  -3.140  0.0000E+00  0.8000E+01
  -3.130  0.0000E+00  0.8000E+01
  -3.120  0.0000E+00  0.8000E+01
  -3.110  0.0000E+00  0.8000E+01
  -3.100  0.0000E+00  0.8000E+01
  -3.090  0.0000E+00  0.8000E+01
  -3.080  0.0000E+00  0.8000E+01
  -3.070  0.0000E+00  0.8000E+01
  -3.060  0.0000E+00  0.8000E+01
  -3.050  0.0000E+00  0.8000E+01
  -3.040  0.0000E+00  0.8000E+01
  -3.030  0.0000E+00  0.8000E+01
  -3.020  0.0000E+00  0.8000E+01
  -3.010  0.0000E+00  0.8000E+01
  -3.000  0.0000E+00  0.8000E+01
  -2.990  0.0000E+00  0.8000E+01
  -2.980  0.0000E+00  0.8000E+01
  -2.970  0.0000E+00  0.8000E+01
  -2.960  0.0000E+00  0.8000E+01
  -2.950  0.0000E+00  0.8000E+01
  -2.940  0.0000E+00  0.8000E+01
  -2.930  0.0000E+00  0.8000E+01
  -2.920  0.0000E+00  0.8000E+01
  -2.910  0.0000E+00  0.8000E+01
  -2.900  0.0000E+00  0.8000E+01
  -2.890  0.0000E+00  0.8000E+01
  -2.880  0.0000E+00  0.8000E+01
  -2.870  0.0000E+00  0.8000E+01
  -2.860  0.0000E+00  0.8000E+01
  -2.850  0.0000E+00  0.8000E+01
  -2.840  0.0000E+00  0.8000E+01
  -2.830  0.0000E+00  0.8000E+01
  -2.820  0.0000E+00  0.8000E+01
  -2.810  0.0000E+00  0.8000E+01
  -2.800  0.0000E+00  0.8000E+01
  -2.790  0.0000E+00  0.8000E+01
  -2.780  0.0000E+00  0.8000E+01
  -2.770  0.0000E+00  0.8000E+01
  -2.760  0.0000E+00  0.8000E+01
  -2.750  0.0000E+00  0.8000E+01
  -2.740  0.0000E+00  0.8000E+01
  -2.730  0.0000E+00  0.8000E+01
  -2.720  0.0000E+00  0.8000E+01
  -2.710  0.0000E+00  0.8000E+01
  -2.700  0.0000E+00  0.8000E+01
  -2.690  0.0000E+00  0.8000E+01
  -2.680  0.0000E+00  0.8000E+01
  -2.670  0.0000E+00  0.8000E+01
  -2.660  0.0000E+00  0.8000E+01
  -2.650  0.0000E+00  0.8000E+01
  -2.640  0.0000E+00  0.8000E+01
  -2.630  0.0000E+00  0.8000E+01
  -2.620  0.0000E+00  0.8000E+01
  -2.610  0.0000E+00  0.8000E+01
  -2.600  0.0000E+00  0.8000E+01
  -2.590  0.0000E+00  0.8000E+01
  -2.580  0.0000E+00  0.8000E+01
  -2.570  0.0000E+00  0.8000E+01
  -2.560  0.0000E+00  0.8000E+01
  -2.550  0.0000E+00  0.8000E+01
  -2.540  0.0000E+00  0.8000E+01
  -2.530  0.0000E+00  0.8000E+01
  -2.520  0.0000E+00  0.8000E+01
  -2.510  0.0000E+00  0.8000E+01
  -2.500  0.0000E+00  0.8000E+01
  -2.490  0.0000E+00  0.8000E+01
  -2.480  0.0000E+00  0.8000E+01
  -2.470  0.0000E+00  0.8000E+01
  -2.460  0.0000E+00  0.8000E+01
  -2.450  0.0000E+00  0.8000E+01
  -2.440  0.0000E+00  0.8000E+01
  -2.430  0.0000E+00  0.8000E+01
  -2.420  0.0000E+00  0.8000E+01
  -2.410  0.0000E+00  0.8000E+01
  -2.400  0.0000E+00  0.8000E+01
  -2.390  0.0000E+00  0.8000E+01
  -2.380  0.0000E+00  0.8000E+01
  -2.370  0.0000E+00  0.8000E+01
  -2.360  0.0000E+00  0.8000E+01
  -2.350  0.0000E+00  0.8000E+01
  -2.340  0.0000E+00  0.8000E+01
  -2.330  0.0000E+00  0.8000E+01
  -2.320  0.0000E+00  0.8000E+01
  -2.310  0.0000E+00  0.8000E+01
  -2.300  0.0000E+00  0.8000E+01
  -2.290  0.0000E+00  0.8000E+01
  -2.280  0.0000E+00  0.8000E+01
  -2.270  0.0000E+00  0.8000E+01
  -2.260  0.0000E+00  0.8000E+01
  -2.250  0.0000E+00  0.8000E+01
  -2.240  0.0000E+00  0.8000E+01
  -2.230  0.0000E+00  0.8000E+01
  -2.220  0.0000E+00  0.8000E+01
  -2.210  0.0000E+00  0.8000E+01
  -2.200  0.0000E+00  0.8000E+01
  -2.190  0.0000E+00  0.8000E+01
  -2.180  0.0000E+00  0.8000E+01
  -2.170  0.0000E+00  0.8000E+01
  -2.160  0.0000E+00  0.8000E+01
  -2.150  0.0000E+00  0.8000E+01
  -2.140  0.0000E+00  0.8000E+01
  -2.130  0.0000E+00  0.8000E+01
  -2.120  0.0000E+00  0.8000E+01
  -2.110  0.0000E+00  0.8000E+01
  -2.100  0.0000E+00  0.8000E+01
  -2.090  0.0000E+00  0.8000E+01
  -2.080  0.0000E+00  0.8000E+01
  -2.070  0.0000E+00  0.8000E+01
  -2.060  0.0000E+00  0.8000E+01
  -2.050  0.0000E+00  0.8000E+01
  -2.040  0.0000E+00  0.8000E+01
  -2.030  0.0000E+00  0.8000E+01
  -2.020  0.0000E+00  0.8000E+01
  -2.010  0.0000E+00  0.8000E+01
  -2.000  0.0000E+00  0.8000E+01
  -1.990  0.0000E+00  0.8000E+01
  -1.980  0.0000E+00  0.8000E+01
  -1.970  0.0000E+00  0.8000E+01
  -1.960  0.0000E+00  0.8000E+01
  -1.950  0.0000E+00  0.8000E+01
  -1.940  0.0000E+00  0.8000E+01
  -1.930  0.0000E+00  0.8000E+01
  -1.920  0.0000E+00  0.8000E+01
  -1.910  0.0000E+00  0.8000E+01
  -1.900  0.0000E+00  0.8000E+01
  -1.890  0.0000E+00  0.8000E+01
  -1.880  0.0000E+00  0.8000E+01
  -1.870  0.0000E+00  0.8000E+01
  -1.860  0.0000E+00  0.8000E+01
  -1.850  0.0000E+00  0.8000E+01
  -1.840  0.0000E+00  0.8000E+01
  -1.830  0.0000E+00  0.8000E+01
  -1.820  0.0000E+00  0.8000E+01
  -1.810  0.0000E+00  0.8000E+01
  -1.800  0.0000E+00  0.8000E+01
  -1.790  0.0000E+00  0.8000E+01
  -1.780  0.0000E+00  0.8000E+01
  -1.770  0.0000E+00  0.8000E+01
  -1.760  0.0000E+00  0.8000E+01
  -1.750  0.0000E+00  0.8000E+01
  -1.740  0.0000E+00  0.8000E+01
  -1.730  0.0000E+00  0.8000E+01
  -1.720  0.0000E+00  0.8000E+01
  -1.710  0.0000E+00  0.8000E+01
  -1.700  0.0000E+00  0.8000E+01
  -1.690  0.0000E+00  0.8000E+01
  -1.680  0.0000E+00  0.8000E+01
  -1.670  0.0000E+00  0.8000E+01
  -1.660  0.0000E+00  0.8000E+01
  -1.650  0.0000E+00  0.8000E+01
  -1.640  0.0000E+00  0.8000E+01
  -1.630  0.0000E+00  0.8000E+01
  -1.620  0.0000E+00  0.8000E+01
  -1.610  0.0000E+00  0.8000E+01
  -1.600  0.0000E+00  0.8000E+01
  -1.590  0.0000E+00  0.8000E+01
  -1.580  0.0000E+00  0.8000E+01
  -1.570  0.0000E+00  0.8000E+01
  -1.560  0.0000E+00  0.8000E+01
  -1.550  0.0000E+00  0.8000E+01
  -1.540  0.0000E+00  0.8000E+01
  -1.530  0.0000E+00  0.8000E+01
  -1.520  0.0000E+00  0.8000E+01
  -1.510  0.0000E+00  0.8000E+01
  -1.500  0.0000E+00  0.8000E+01
  -1.490  0.0000E+00  0.8000E+01
  -1.480  0.0000E+00  0.8000E+01
  -1.470  0.0000E+00  0.8000E+01
  -1.460  0.0000E+00  0.8000E+01
  -1.450  0.0000E+00  0.8000E+01
  -1.440  0.0000E+00  0.8000E+01
  -1.430  0.0000E+00  0.8000E+01
  -1.420  0.0000E+00  0.8000E+01
  -1.410  0.0000E+00  0.8000E+01
  -1.400  0.0000E+00  0.8000E+01
  -1.390  0.0000E+00  0.8000E+01
  -1.380  0.0000E+00  0.8000E+01
  -1.370  0.0000E+00  0.8000E+01
  -1.360  0.0000E+00  0.8000E+01
  -1.350  0.0000E+00  0.8000E+01
  -1.340  0.0000E+00  0.8000E+01
  -1.330  0.0000E+00  0.8000E+01
  -1.320  0.0000E+00  0.8000E+01
  -1.310  0.0000E+00  0.8000E+01
  -1.300  0.0000E+00  0.8000E+01
  -1.290  0.0000E+00  0.8000E+01
  -1.280  0.0000E+00  0.8000E+01
  -1.270  0.0000E+00  0.8000E+01
  -1.260  0.0000E+00  0.8000E+01
  -1.250  0.0000E+00  0.8000E+01
  -1.240  0.0000E+00  0.8000E+01
  -1.230  0.0000E+00  0.8000E+01
  -1.220  0.0000E+00  0.8000E+01
  -1.210  0.0000E+00  0.8000E+01
  -1.200  0.0000E+00  0.8000E+01
  -1.190  0.0000E+00  0.8000E+01
  -1.180  0.0000E+00  0.8000E+01
  -1.170  0.0000E+00  0.8000E+01
  -1.160  0.0000E+00  0.8000E+01
  -1.150  0.1315E-01  0.8000E+01
  -1.140  0.1630E+00  0.8001E+01
  -1.130  0.3275E+00  0.8003E+01
  -1.120  0.4892E+00  0.8007E+01
  -1.110  0.6520E+00  0.8013E+01
  -1.100  0.8135E+00  0.8020E+01
  -1.090  0.9762E+00  0.8029E+01
  -1.080  0.1779E+01  0.8041E+01
  -1.070  0.1712E+01  0.8057E+01
  -1.060  0.1651E+01  0.8074E+01
  -1.050  0.1695E+01  0.8091E+01
  -1.040  0.1660E+01  0.8107E+01
  -1.030  0.1648E+01  0.8124E+01
  -1.020  0.1684E+01  0.8141E+01
  -1.010  0.1674E+01  0.8157E+01
  -1.000  0.1673E+01  0.8174E+01
  -0.990  0.1690E+01  0.8191E+01
  -0.980  0.1690E+01  0.8208E+01
  -0.970  0.1678E+01  0.8225E+01
  -0.960  0.1690E+01  0.8242E+01
  -0.950  0.1705E+01  0.8259E+01
  -0.940  0.1716E+01  0.8276E+01
  -0.930  0.1694E+01  0.8293E+01
  -0.920  0.2200E+01  0.8312E+01
  -0.910  0.2467E+01  0.8336E+01
  -0.900  0.2494E+01  0.8360E+01
  -0.890  0.2682E+01  0.8386E+01
  -0.880  0.2748E+01  0.8413E+01
  -0.870  0.2846E+01  0.8441E+01
  -0.860  0.3020E+01  0.8470E+01
  -0.850  0.3113E+01  0.8501E+01
  -0.840  0.3216E+01  0.8533E+01
  -0.830  0.3357E+01  0.8566E+01
  -0.820  0.3380E+01  0.8600E+01
  -0.810  0.3376E+01  0.8633E+01
  -0.800  0.3393E+01  0.8667E+01
  -0.790  0.3430E+01  0.8701E+01
  -0.780  0.3443E+01  0.8736E+01
  -0.770  0.3437E+01  0.8770E+01
  -0.760  0.3439E+01  0.8804E+01
  -0.750  0.3457E+01  0.8839E+01
  -0.740  0.3478E+01  0.8873E+01
  -0.730  0.3501E+01  0.8908E+01
  -0.720  0.3510E+01  0.8943E+01
  -0.710  0.3530E+01  0.8979E+01
  -0.700  0.3538E+01  0.9014E+01
  -0.690  0.3546E+01  0.9049E+01
  -0.680  0.3575E+01  0.9085E+01
  -0.670  0.3601E+01  0.9121E+01
  -0.660  0.3618E+01  0.9157E+01
  -0.650  0.3647E+01  0.9193E+01
  -0.640  0.3667E+01  0.9230E+01
  -0.630  0.3682E+01  0.9267E+01
  -0.620  0.3711E+01  0.9304E+01
  -0.610  0.3750E+01  0.9341E+01
  -0.600  0.3792E+01  0.9379E+01
  -0.590  0.3819E+01  0.9417E+01
  -0.580  0.3860E+01  0.9455E+01
  -0.570  0.3910E+01  0.9494E+01
  -0.560  0.3961E+01  0.9533E+01
  -0.550  0.4038E+01  0.9573E+01
  -0.540  0.4140E+01  0.9614E+01
  -0.530  0.4289E+01  0.9656E+01
  -0.520  0.4409E+01  0.9700E+01
  -0.510  0.4524E+01  0.9744E+01
  -0.500  0.4631E+01  0.9790E+01
  -0.490  0.4708E+01  0.9837E+01
  -0.480  0.4748E+01  0.9884E+01
  -0.470  0.4753E+01  0.9932E+01
  -0.460  0.4774E+01  0.9979E+01
  -0.450  0.4324E+01  0.1002E+02
  -0.440  0.3978E+01  0.1007E+02
  -0.430  0.3739E+01  0.1010E+02
  -0.420  0.3727E+01  0.1014E+02
  -0.410  0.3828E+01  0.1018E+02
  -0.400  0.4188E+01  0.1022E+02
  -0.390  0.4424E+01  0.1027E+02
  -0.380  0.4033E+01  0.1031E+02
  -0.370  0.3780E+01  0.1035E+02
  -0.360  0.3495E+01  0.1038E+02
  -0.350  0.3312E+01  0.1042E+02
  -0.340  0.3300E+01  0.1045E+02
  -0.330  0.3012E+01  0.1048E+02
  -0.320  0.2686E+01  0.1051E+02
  -0.310  0.2549E+01  0.1054E+02
  -0.300  0.2653E+01  0.1056E+02
  -0.290  0.2765E+01  0.1059E+02
  -0.280  0.2817E+01  0.1062E+02
  -0.270  0.3135E+01  0.1065E+02
  -0.260  0.3249E+01  0.1068E+02
  -0.250  0.3244E+01  0.1071E+02
  -0.240  0.3249E+01  0.1074E+02
  -0.230  0.3324E+01  0.1078E+02
  -0.220  0.3373E+01  0.1081E+02
  -0.210  0.3550E+01  0.1085E+02
  -0.200  0.3752E+01  0.1088E+02
  -0.190  0.4015E+01  0.1092E+02
  -0.180  0.4224E+01  0.1096E+02
  -0.170  0.4480E+01  0.1101E+02
  -0.160  0.4918E+01  0.1105E+02
  -0.150  0.5302E+01  0.1110E+02
  -0.140  0.6001E+01  0.1116E+02
  -0.130  0.6781E+01  0.1122E+02
  -0.120  0.7312E+01  0.1129E+02
  -0.110  0.7420E+01  0.1137E+02
  -0.100  0.7590E+01  0.1144E+02
  -0.090  0.7678E+01  0.1152E+02
  -0.080  0.7656E+01  0.1160E+02
  -0.070  0.7856E+01  0.1167E+02
  -0.060  0.8558E+01  0.1175E+02
  -0.050  0.7449E+01  0.1184E+02
  -0.040  0.6719E+01  0.1191E+02
  -0.030  0.6137E+01  0.1197E+02
  -0.020  0.5421E+01  0.1203E+02
  -0.010  0.4993E+01  0.1208E+02
   0.000  0.4863E+01  0.1213E+02
   0.010  0.4750E+01  0.1218E+02
   0.020  0.4623E+01  0.1222E+02
   0.030  0.4544E+01  0.1227E+02
   0.040  0.4460E+01  0.1231E+02
   0.050  0.4543E+01  0.1236E+02
   0.060  0.5968E+01  0.1241E+02
   0.070  0.6238E+01  0.1247E+02
   0.080  0.6766E+01  0.1254E+02
   0.090  0.7272E+01  0.1261E+02
   0.100  0.7916E+01  0.1269E+02
   0.110  0.9304E+01  0.1277E+02
   0.120  0.8728E+01  0.1287E+02
   0.130  0.8452E+01  0.1295E+02
   0.140  0.7961E+01  0.1304E+02
   0.150  0.7772E+01  0.1311E+02
   0.160  0.7533E+01  0.1319E+02
   0.170  0.7229E+01  0.1326E+02
   0.180  0.6937E+01  0.1334E+02
   0.190  0.6555E+01  0.1340E+02
   0.200  0.5946E+01  0.1347E+02
   0.210  0.5489E+01  0.1352E+02
   0.220  0.5266E+01  0.1358E+02
   0.230  0.5108E+01  0.1363E+02
   0.240  0.5031E+01  0.1368E+02
   0.250  0.4971E+01  0.1373E+02
   0.260  0.4922E+01  0.1378E+02
   0.270  0.4894E+01  0.1383E+02
   0.280  0.4895E+01  0.1388E+02
   0.290  0.4901E+01  0.1393E+02
   0.300  0.4923E+01  0.1397E+02
   0.310  0.5239E+01  0.1403E+02
   0.320  0.5271E+01  0.1408E+02
   0.330  0.5280E+01  0.1413E+02
   0.340  0.5337E+01  0.1418E+02
   0.350  0.5457E+01  0.1424E+02
   0.360  0.5570E+01  0.1429E+02
   0.370  0.5760E+01  0.1435E+02
   0.380  0.5884E+01  0.1441E+02
   0.390  0.5986E+01  0.1447E+02
   0.400  0.6007E+01  0.1453E+02
   0.410  0.4906E+01  0.1459E+02
   0.420  0.5322E+01  0.1464E+02
   0.430  0.4981E+01  0.1470E+02
   0.440  0.4845E+01  0.1474E+02
   0.450  0.4666E+01  0.1479E+02
   0.460  0.4425E+01  0.1484E+02
   0.470  0.4229E+01  0.1488E+02
   0.480  0.4106E+01  0.1492E+02
   0.490  0.4003E+01  0.1496E+02
   0.500  0.3920E+01  0.1500E+02
   0.510  0.3839E+01  0.1504E+02
   0.520  0.3770E+01  0.1508E+02
   0.530  0.3711E+01  0.1512E+02
   0.540  0.3677E+01  0.1515E+02
   0.550  0.3642E+01  0.1519E+02
   0.560  0.3620E+01  0.1523E+02
   0.570  0.3601E+01  0.1526E+02
   0.580  0.3601E+01  0.1530E+02
   0.590  0.3610E+01  0.1533E+02
   0.600  0.3637E+01  0.1537E+02
   0.610  0.3787E+01  0.1541E+02
   0.620  0.4090E+01  0.1545E+02
   0.630  0.4158E+01  0.1549E+02
   0.640  0.4104E+01  0.1553E+02
   0.650  0.4085E+01  0.1557E+02
   0.660  0.4042E+01  0.1561E+02
   0.670  0.4018E+01  0.1565E+02
   0.680  0.3830E+01  0.1569E+02
   0.690  0.3660E+01  0.1573E+02
   0.700  0.3618E+01  0.1577E+02
   0.710  0.3584E+01  0.1580E+02
   0.720  0.3551E+01  0.1584E+02
   0.730  0.3528E+01  0.1587E+02
   0.740  0.3507E+01  0.1591E+02
   0.750  0.3492E+01  0.1594E+02
   0.760  0.3489E+01  0.1598E+02
   0.770  0.3479E+01  0.1601E+02
   0.780  0.3477E+01  0.1605E+02
   0.790  0.3473E+01  0.1608E+02
   0.800  0.3469E+01  0.1612E+02
   0.810  0.3468E+01  0.1615E+02
   0.820  0.3473E+01  0.1619E+02
   0.830  0.3482E+01  0.1622E+02
   0.840  0.3482E+01  0.1626E+02
   0.850  0.3482E+01  0.1629E+02
   0.860  0.3492E+01  0.1633E+02
   0.870  0.3507E+01  0.1636E+02
   0.880  0.3525E+01  0.1640E+02
   0.890  0.3548E+01  0.1643E+02
   0.900  0.3565E+01  0.1647E+02
   0.910  0.3587E+01  0.1650E+02
   0.920  0.3608E+01  0.1654E+02
   0.930  0.3638E+01  0.1657E+02
   0.940  0.3678E+01  0.1661E+02
   0.950  0.3733E+01  0.1665E+02
   0.960  0.3827E+01  0.1669E+02
   0.970  0.3974E+01  0.1673E+02
   0.980  0.4077E+01  0.1677E+02
   0.990  0.4161E+01  0.1681E+02
   1.000  0.4228E+01  0.1685E+02
   1.010  0.4287E+01  0.1689E+02
   1.020  0.4345E+01  0.1693E+02
   1.030  0.4413E+01  0.1698E+02
   1.040  0.4468E+01  0.1702E+02
   1.050  0.4518E+01  0.1707E+02
   1.060  0.4571E+01  0.1711E+02
   1.070  0.4629E+01  0.1716E+02
   1.080  0.4689E+01  0.1721E+02
   1.090  0.4761E+01  0.1725E+02
   1.100  0.4857E+01  0.1730E+02
   1.110  0.4939E+01  0.1735E+02
   1.120  0.5015E+01  0.1740E+02
   1.130  0.5098E+01  0.1745E+02
   1.140  0.5215E+01  0.1750E+02
   1.150  0.5358E+01  0.1755E+02
   1.160  0.5576E+01  0.1761E+02
   1.170  0.5742E+01  0.1767E+02
   1.180  0.6023E+01  0.1772E+02
   1.190  0.6382E+01  0.1779E+02
   1.200  0.6406E+01  0.1785E+02
   1.210  0.6052E+01  0.1791E+02
   1.220  0.6198E+01  0.1797E+02
   1.230  0.6443E+01  0.1804E+02
   1.240  0.6124E+01  0.1810E+02
   1.250  0.5658E+01  0.1816E+02
   1.260  0.5273E+01  0.1821E+02
   1.270  0.5070E+01  0.1826E+02
   1.280  0.4878E+01  0.1831E+02
   1.290  0.4683E+01  0.1836E+02
   1.300  0.4544E+01  0.1841E+02
   1.310  0.4355E+01  0.1845E+02
   1.320  0.4240E+01  0.1850E+02
   1.330  0.4168E+01  0.1854E+02
   1.340  0.4107E+01  0.1858E+02
   1.350  0.4079E+01  0.1862E+02
   1.360  0.3968E+01  0.1866E+02
   1.370  0.3880E+01  0.1870E+02
   1.380  0.3790E+01  0.1874E+02
   1.390  0.3620E+01  0.1878E+02
   1.400  0.3448E+01  0.1881E+02
   1.410  0.3297E+01  0.1884E+02
   1.420  0.3175E+01  0.1888E+02
   1.430  0.3065E+01  0.1891E+02
   1.440  0.2961E+01  0.1894E+02
   1.450  0.2867E+01  0.1897E+02
   1.460  0.2785E+01  0.1900E+02
   1.470  0.2777E+01  0.1902E+02
   1.480  0.2661E+01  0.1905E+02
   1.490  0.2549E+01  0.1908E+02
   1.500  0.2460E+01  0.1910E+02
   1.510  0.2483E+01  0.1913E+02
   1.520  0.2400E+01  0.1915E+02
   1.530  0.2332E+01  0.1918E+02
   1.540  0.2278E+01  0.1920E+02
   1.550  0.2266E+01  0.1922E+02
   1.560  0.2366E+01  0.1924E+02
   1.570  0.2208E+01  0.1927E+02
   1.580  0.2179E+01  0.1929E+02
   1.590  0.2167E+01  0.1931E+02
   1.600  0.2155E+01  0.1933E+02
   1.610  0.2207E+01  0.1935E+02
   1.620  0.2136E+01  0.1938E+02
   1.630  0.2134E+01  0.1940E+02
   1.640  0.2133E+01  0.1942E+02
   1.650  0.2192E+01  0.1944E+02
   1.660  0.2238E+01  0.1946E+02
   1.670  0.2220E+01  0.1948E+02
   1.680  0.2275E+01  0.1951E+02
   1.690  0.2317E+01  0.1953E+02
   1.700  0.2391E+01  0.1955E+02
   1.710  0.2507E+01  0.1958E+02
   1.720  0.2514E+01  0.1960E+02
   1.730  0.2416E+01  0.1963E+02
   1.740  0.2406E+01  0.1965E+02
   1.750  0.2467E+01  0.1968E+02
   1.760  0.2497E+01  0.1970E+02
   1.770  0.2513E+01  0.1973E+02
   1.780  0.2530E+01  0.1975E+02
   1.790  0.2552E+01  0.1978E+02
   1.800  0.2552E+01  0.1980E+02
   1.810  0.2624E+01  0.1983E+02
   1.820  0.2698E+01  0.1985E+02
   1.830  0.2645E+01  0.1988E+02
   1.840  0.2664E+01  0.1991E+02
   1.850  0.2721E+01  0.1993E+02
   1.860  0.2812E+01  0.1996E+02
   1.870  0.2950E+01  0.1999E+02
   1.880  0.2924E+01  0.2002E+02
   1.890  0.2998E+01  0.2005E+02
   1.900  0.3135E+01  0.2008E+02
   1.910  0.3287E+01  0.2011E+02
   1.920  0.3388E+01  0.2015E+02
   1.930  0.3449E+01  0.2018E+02
   1.940  0.3720E+01  0.2021E+02
   1.950  0.3880E+01  0.2025E+02
   1.960  0.3907E+01  0.2029E+02
   1.970  0.3916E+01  0.2033E+02
   1.980  0.3995E+01  0.2037E+02
   1.990  0.4072E+01  0.2041E+02
   2.000  0.4022E+01  0.2045E+02
   2.010  0.4133E+01  0.2049E+02
   2.020  0.4119E+01  0.2053E+02
   2.030  0.4160E+01  0.2058E+02
   2.040  0.4089E+01  0.2061E+02
   2.050  0.3555E+01  0.2065E+02
   2.060  0.3679E+01  0.2069E+02
   2.070  0.3002E+01  0.2072E+02
   2.080  0.3108E+01  0.2075E+02
   2.090  0.3218E+01  0.2078E+02
   2.100  0.2908E+01  0.2081E+02
   2.110  0.3055E+01  0.2084E+02
   2.120  0.3026E+01  0.2087E+02
   2.130  0.3058E+01  0.2091E+02
   2.140  0.3113E+01  0.2094E+02
   2.150  0.3092E+01  0.2097E+02
   2.160  0.3142E+01  0.2100E+02
   2.170  0.3229E+01  0.2103E+02
   2.180  0.3269E+01  0.2106E+02
   2.190  0.3262E+01  0.2110E+02
   2.200  0.3271E+01  0.2113E+02
   2.210  0.3300E+01  0.2116E+02
   2.220  0.3329E+01  0.2119E+02
   2.230  0.3351E+01  0.2123E+02
   2.240  0.3632E+01  0.2126E+02
   2.250  0.3895E+01  0.2130E+02
   2.260  0.3993E+01  0.2134E+02
   2.270  0.4115E+01  0.2138E+02
   2.280  0.4290E+01  0.2142E+02
   2.290  0.4427E+01  0.2147E+02
   2.300  0.4464E+01  0.2151E+02
   2.310  0.4583E+01  0.2156E+02
   2.320  0.4644E+01  0.2160E+02
   2.330  0.4713E+01  0.2165E+02
   2.340  0.4721E+01  0.2170E+02
   2.350  0.4760E+01  0.2174E+02
   2.360  0.4833E+01  0.2179E+02
   2.370  0.4879E+01  0.2184E+02
   2.380  0.4958E+01  0.2189E+02
   2.390  0.5122E+01  0.2194E+02
   2.400  0.5207E+01  0.2199E+02
   2.410  0.5337E+01  0.2204E+02
   2.420  0.5051E+01  0.2210E+02
   2.430  0.5076E+01  0.2215E+02
   2.440  0.5652E+01  0.2220E+02
   2.450  0.5448E+01  0.2225E+02
   2.460  0.5169E+01  0.2231E+02
   2.470  0.4959E+01  0.2236E+02
   2.480  0.4940E+01  0.2240E+02
   2.490  0.4918E+01  0.2245E+02
   2.500  0.5032E+01  0.2250E+02
   2.510  0.4842E+01  0.2255E+02
   2.520  0.4859E+01  0.2260E+02
   2.530  0.4943E+01  0.2265E+02
   2.540  0.4987E+01  0.2270E+02
   2.550  0.4991E+01  0.2275E+02
   2.560  0.5016E+01  0.2280E+02
   2.570  0.5129E+01  0.2285E+02
   2.580  0.5300E+01  0.2290E+02
   2.590  0.5537E+01  0.2296E+02
   2.600  0.5861E+01  0.2302E+02
   2.610  0.6237E+01  0.2308E+02
   2.620  0.6463E+01  0.2314E+02
   2.630  0.6691E+01  0.2321E+02
   2.640  0.6505E+01  0.2327E+02
   2.650  0.6105E+01  0.2334E+02
   2.660  0.5478E+01  0.2340E+02
   2.670  0.5132E+01  0.2345E+02
   2.680  0.5007E+01  0.2350E+02
   2.690  0.4929E+01  0.2355E+02
   2.700  0.4854E+01  0.2360E+02
   2.710  0.4773E+01  0.2365E+02
   2.720  0.4715E+01  0.2369E+02
   2.730  0.4753E+01  0.2374E+02
   2.740  0.4696E+01  0.2379E+02
   2.750  0.4729E+01  0.2384E+02
   2.760  0.4884E+01  0.2388E+02
   2.770  0.4892E+01  0.2393E+02
   2.780  0.4506E+01  0.2398E+02
   2.790  0.4614E+01  0.2403E+02
   2.800  0.4744E+01  0.2407E+02
   2.810  0.4860E+01  0.2412E+02
   2.820  0.5111E+01  0.2417E+02
   2.830  0.5289E+01  0.2422E+02
   2.840  0.5535E+01  0.2428E+02
   2.850  0.5915E+01  0.2433E+02
   2.860  0.6316E+01  0.2440E+02
   2.870  0.6526E+01  0.2446E+02
   2.880  0.6669E+01  0.2453E+02
   2.890  0.6739E+01  0.2459E+02
   2.900  0.6884E+01  0.2466E+02
   2.910  0.7152E+01  0.2473E+02
   2.920  0.7997E+01  0.2481E+02
   2.930  0.8056E+01  0.2489E+02
   2.940  0.7724E+01  0.2497E+02
   2.950  0.7414E+01  0.2504E+02
   2.960  0.7375E+01  0.2512E+02
   2.970  0.7269E+01  0.2519E+02
   2.980  0.7363E+01  0.2526E+02
   2.990  0.7607E+01  0.2534E+02
   3.000  0.8051E+01  0.2542E+02
   3.010  0.9159E+01  0.2550E+02
   3.020  0.1008E+02  0.2560E+02
   3.030  0.1001E+02  0.2570E+02
   3.040  0.1020E+02  0.2580E+02
   3.050  0.1067E+02  0.2590E+02
   3.060  0.1132E+02  0.2601E+02
   3.070  0.1183E+02  0.2613E+02
   3.080  0.1202E+02  0.2625E+02
   3.090  0.1146E+02  0.2637E+02
   3.100  0.1152E+02  0.2649E+02
   3.110  0.1212E+02  0.2660E+02
   3.120  0.1185E+02  0.2672E+02
   3.130  0.1210E+02  0.2684E+02
   3.140  0.1306E+02  0.2697E+02
   3.150  0.1936E+02  0.2713E+02
   3.160  0.1484E+02  0.2730E+02
   3.170  0.1186E+02  0.2743E+02
   3.180  0.1098E+02  0.2755E+02
   3.190  0.1047E+02  0.2765E+02
   3.200  0.7096E+01  0.2774E+02
   3.210  0.5199E+01  0.2780E+02
   3.220  0.4279E+01  0.2785E+02
   3.230  0.3841E+01  0.2789E+02
   3.240  0.3689E+01  0.2793E+02
   3.250  0.3605E+01  0.2796E+02
   3.260  0.3613E+01  0.2800E+02
   3.270  0.3647E+01  0.2803E+02
   3.280  0.3948E+01  0.2807E+02
   3.290  0.4333E+01  0.2811E+02
   3.300  0.4511E+01  0.2816E+02
   3.310  0.4577E+01  0.2820E+02
   3.320  0.4648E+01  0.2825E+02
   3.330  0.4814E+01  0.2830E+02
   3.340  0.5020E+01  0.2835E+02
   3.350  0.5356E+01  0.2840E+02
   3.360  0.5482E+01  0.2845E+02
   3.370  0.5691E+01  0.2851E+02
   3.380  0.5738E+01  0.2857E+02
   3.390  0.5844E+01  0.2862E+02
   3.400  0.6335E+01  0.2868E+02
   3.410  0.4692E+01  0.2874E+02
   3.420  0.4157E+01  0.2878E+02
   3.430  0.4050E+01  0.2882E+02
   3.440  0.4026E+01  0.2886E+02
   3.450  0.4047E+01  0.2890E+02
   3.460  0.4062E+01  0.2894E+02
   3.470  0.4064E+01  0.2898E+02
   3.480  0.4148E+01  0.2902E+02
   3.490  0.4367E+01  0.2907E+02
   3.500  0.4491E+01  0.2911E+02
   3.510  0.4710E+01  0.2916E+02
   3.520  0.4909E+01  0.2921E+02
   3.530  0.5116E+01  0.2926E+02
   3.540  0.5311E+01  0.2931E+02
   3.550  0.5584E+01  0.2936E+02
   3.560  0.5921E+01  0.2942E+02
   3.570  0.6245E+01  0.2948E+02
   3.580  0.6820E+01  0.2955E+02
   3.590  0.6485E+01  0.2961E+02
   3.600  0.6494E+01  0.2968E+02
   3.610  0.6581E+01  0.2974E+02
   3.620  0.6709E+01  0.2981E+02
   3.630  0.7664E+01  0.2988E+02
   3.640  0.6606E+01  0.2995E+02
   3.650  0.6048E+01  0.3002E+02
   3.660  0.5612E+01  0.3008E+02
   3.670  0.5206E+01  0.3013E+02
   3.680  0.4990E+01  0.3018E+02
   3.690  0.4692E+01  0.3023E+02
   3.700  0.4489E+01  0.3027E+02
   3.710  0.4399E+01  0.3032E+02
   3.720  0.4254E+01  0.3036E+02
   3.730  0.4338E+01  0.3041E+02
   3.740  0.4291E+01  0.3045E+02
   3.750  0.4221E+01  0.3049E+02
   3.760  0.4235E+01  0.3053E+02
   3.770  0.3583E+01  0.3057E+02
   3.780  0.3980E+01  0.3061E+02
   3.790  0.4196E+01  0.3065E+02
   3.800  0.4159E+01  0.3069E+02
   3.810  0.4299E+01  0.3074E+02
   3.820  0.4460E+01  0.3078E+02
   3.830  0.4641E+01  0.3082E+02
   3.840  0.4827E+01  0.3087E+02
   3.850  0.5017E+01  0.3092E+02
   3.860  0.5251E+01  0.3097E+02
   3.870  0.5590E+01  0.3103E+02
   3.880  0.5952E+01  0.3108E+02
   3.890  0.7231E+01  0.3115E+02
   3.900  0.6377E+01  0.3121E+02
   3.910  0.6207E+01  0.3128E+02
   3.920  0.6051E+01  0.3134E+02
   3.930  0.6012E+01  0.3140E+02
   3.940  0.6031E+01  0.3146E+02
   3.950  0.5930E+01  0.3152E+02
   3.960  0.5933E+01  0.3158E+02
   3.970  0.5907E+01  0.3164E+02
   3.980  0.5834E+01  0.3169E+02
   3.990  0.5758E+01  0.3175E+02
   4.000  0.4574E+01  0.3181E+02
   4.010  0.3708E+01  0.3185E+02
   4.020  0.3205E+01  0.3188E+02
   4.030  0.2680E+01  0.3191E+02
   4.040  0.2241E+01  0.3193E+02
   4.050  0.1833E+01  0.3196E+02
   4.060  0.1450E+01  0.3197E+02
   4.070  0.1074E+01  0.3198E+02
   4.080  0.7079E+00  0.3199E+02
   4.090  0.3557E+00  0.3200E+02
   4.100  0.1983E-01  0.3200E+02
   4.110  0.0000E+00  0.3200E+02
   4.120  0.0000E+00  0.3200E+02
   4.130  0.0000E+00  0.3200E+02
   4.140  0.0000E+00  0.3200E+02
   4.150  0.0000E+00  0.3200E+02
   4.160  0.0000E+00  0.3200E+02
   4.170  0.0000E+00  0.3200E+02
   4.180  0.0000E+00  0.3200E+02
   4.190  0.0000E+00  0.3200E+02
   4.200  0.0000E+00  0.3200E+02
   4.210  0.0000E+00  0.3200E+02
   4.220  0.0000E+00  0.3200E+02
   4.230  0.0000E+00  0.3200E+02
   4.240  0.0000E+00  0.3200E+02
   4.250  0.0000E+00  0.3200E+02
   4.260  0.0000E+00  0.3200E+02
   4.270  0.0000E+00  0.3200E+02
   4.280  0.0000E+00  0.3200E+02
   4.290  0.0000E+00  0.3200E+02
   4.300  0.0000E+00  0.3200E+02
   4.310  0.0000E+00  0.3200E+02
   4.320  0.0000E+00  0.3200E+02
   4.330  0.0000E+00  0.3200E+02
   4.340  0.0000E+00  0.3200E+02
   4.350  0.0000E+00  0.3200E+02
   4.360  0.0000E+00  0.3200E+02
   4.370  0.0000E+00  0.3200E+02
   4.380  0.0000E+00  0.3200E+02
   4.390  0.0000E+00  0.3200E+02
   4.400  0.0000E+00  0.3200E+02
   4.410  0.0000E+00  0.3200E+02
   4.420  0.0000E+00  0.3200E+02
   4.430  0.0000E+00  0.3200E+02
   4.440  0.0000E+00  0.3200E+02
   4.450  0.0000E+00  0.3200E+02
   4.460  0.0000E+00  0.3200E+02
   4.470  0.0000E+00  0.3200E+02
   4.480  0.0000E+00  0.3200E+02
   4.490  0.0000E+00  0.3200E+02
   4.500  0.0000E+00  0.3200E+02
   4.510  0.0000E+00  0.3200E+02
   4.520  0.0000E+00  0.3200E+02
   4.530  0.0000E+00  0.3200E+02
   4.540  0.0000E+00  0.3200E+02
   4.550  0.0000E+00  0.3200E+02
   4.560  0.0000E+00  0.3200E+02
   4.570  0.0000E+00  0.3200E+02
   4.580  0.0000E+00  0.3200E+02
   4.590  0.0000E+00  0.3200E+02
   4.600  0.0000E+00  0.3200E+02
   4.610  0.0000E+00  0.3200E+02
   4.620  0.0000E+00  0.3200E+02
   4.630  0.0000E+00  0.3200E+02
   4.640  0.0000E+00  0.3200E+02
   4.650  0.0000E+00  0.3200E+02
   4.660  0.0000E+00  0.3200E+02
   4.670  0.0000E+00  0.3200E+02
   4.680  0.0000E+00  0.3200E+02
   4.690  0.0000E+00  0.3200E+02
   4.700  0.0000E+00  0.3200E+02
   4.710  0.0000E+00  0.3200E+02
   4.720  0.0000E+00  0.3200E+02
   4.730  0.0000E+00  0.3200E+02
   4.740  0.0000E+00  0.3200E+02
   4.750  0.0000E+00  0.3200E+02
   4.760  0.0000E+00  0.3200E+02
   4.770  0.0000E+00  0.3200E+02
   4.780  0.0000E+00  0.3200E+02
   4.790  0.0000E+00  0.3200E+02
   4.800  0.0000E+00  0.3200E+02
   4.810  0.0000E+00  0.3200E+02
   4.820  0.0000E+00  0.3200E+02
   4.830  0.0000E+00  0.3200E+02
   4.840  0.0000E+00  0.3200E+02
   4.850  0.0000E+00  0.3200E+02
   4.860  0.0000E+00  0.3200E+02
   4.870  0.0000E+00  0.3200E+02
   4.880  0.0000E+00  0.3200E+02
   4.890  0.0000E+00  0.3200E+02
   4.900  0.2273E-03  0.3200E+02
   4.910  0.9104E-03  0.3200E+02
   4.920  0.2918E-02  0.3200E+02
   4.930  0.4023E-02  0.3200E+02
   4.940  0.5232E-02  0.3200E+02
   4.950  0.6544E-02  0.3200E+02
   4.960  0.7961E-02  0.3200E+02
   4.970  0.9581E-02  0.3200E+02
   4.980  0.1136E-01  0.3200E+02
   4.990  0.1288E-01  0.3200E+02
   5.000  0.1428E-01  0.3200E+02
   5.010  0.1574E-01  0.3200E+02
   5.020  0.1729E-01  0.3200E+02
   5.030  0.1891E-01  0.3200E+02
   5.040  0.2061E-01  0.3200E+02
   5.050  0.2238E-01  0.3200E+02
   5.060  0.2424E-01  0.3200E+02
   5.070  0.2606E-01  0.3200E+02
   5.080  0.2788E-01  0.3200E+02
   5.090  0.2968E-01  0.3200E+02
   5.100  0.3147E-01  0.3200E+02
   5.110  0.3326E-01  0.3200E+02
   5.120  0.3513E-01  0.3200E+02
   5.130  0.3707E-01  0.3200E+02
   5.140  0.3909E-01  0.3200E+02
   5.150  0.4117E-01  0.3200E+02
   5.160  0.4334E-01  0.3201E+02
   5.170  0.4554E-01  0.3201E+02
   5.180  0.4766E-01  0.3201E+02
   5.190  0.4983E-01  0.3201E+02
   5.200  0.5205E-01  0.3201E+02
   5.210  0.5429E-01  0.3201E+02
   5.220  0.5657E-01  0.3201E+02
   5.230  0.5886E-01  0.3201E+02
   5.240  0.6119E-01  0.3201E+02
   5.250  0.6358E-01  0.3201E+02
   5.260  0.6605E-01  0.3201E+02
   5.270  0.6859E-01  0.3201E+02
   5.280  0.7122E-01  0.3201E+02
   5.290  0.7393E-01  0.3201E+02
   5.300  0.7661E-01  0.3201E+02
   5.310  0.7929E-01  0.3201E+02
   5.320  0.8197E-01  0.3202E+02
   5.330  0.8473E-01  0.3202E+02
   5.340  0.8758E-01  0.3202E+02
   5.350  0.9046E-01  0.3202E+02
   5.360  0.9340E-01  0.3202E+02
   5.370  0.9638E-01  0.3202E+02
   5.380  0.9940E-01  0.3202E+02
   5.390  0.1025E+00  0.3202E+02
   5.400  0.1056E+00  0.3202E+02
   5.410  0.1089E+00  0.3202E+02
   5.420  0.1238E+00  0.3202E+02
   5.430  0.1539E+00  0.3203E+02
   5.440  0.1585E+00  0.3203E+02
   5.450  0.1657E+00  0.3203E+02
   5.460  0.1728E+00  0.3203E+02
   5.470  0.1880E+00  0.3203E+02
   5.480  0.1737E+00  0.3203E+02
   5.490  0.1736E+00  0.3204E+02
   5.500  0.1788E+00  0.3204E+02
   5.510  0.1838E+00  0.3204E+02
   5.520  0.1888E+00  0.3204E+02
   5.530  0.1899E+00  0.3204E+02
   5.540  0.1898E+00  0.3205E+02
   5.550  0.1897E+00  0.3205E+02
   5.560  0.1902E+00  0.3205E+02
   5.570  0.1947E+00  0.3205E+02
   5.580  0.1992E+00  0.3205E+02
   5.590  0.2036E+00  0.3206E+02
   5.600  0.2080E+00  0.3206E+02
   5.610  0.2052E+00  0.3206E+02
   5.620  0.2076E+00  0.3206E+02
   5.630  0.2095E+00  0.3206E+02
   5.640  0.2115E+00  0.3207E+02
   5.650  0.2136E+00  0.3207E+02
   5.660  0.2168E+00  0.3207E+02
   5.670  0.2212E+00  0.3207E+02
   5.680  0.2255E+00  0.3207E+02
   5.690  0.2297E+00  0.3208E+02
   5.700  0.2280E+00  0.3208E+02
   5.710  0.2286E+00  0.3208E+02
   5.720  0.2327E+00  0.3208E+02
   5.730  0.2354E+00  0.3209E+02
   5.740  0.2382E+00  0.3209E+02
   5.750  0.2410E+00  0.3209E+02
   5.760  0.2438E+00  0.3209E+02
   5.770  0.2478E+00  0.3210E+02
   5.780  0.2523E+00  0.3210E+02
   5.790  0.2548E+00  0.3210E+02
   5.800  0.2556E+00  0.3210E+02
   5.810  0.2575E+00  0.3211E+02
   5.820  0.2595E+00  0.3211E+02
   5.830  0.2641E+00  0.3211E+02
   5.840  0.2673E+00  0.3211E+02
   5.850  0.2706E+00  0.3212E+02
   5.860  0.2739E+00  0.3212E+02
   5.870  0.2772E+00  0.3212E+02
   5.880  0.2811E+00  0.3212E+02
   5.890  0.2842E+00  0.3213E+02
   5.900  0.2870E+00  0.3213E+02
   5.910  0.2898E+00  0.3213E+02
   5.920  0.2925E+00  0.3214E+02
   5.930  0.2952E+00  0.3214E+02
   5.940  0.2979E+00  0.3214E+02
   5.950  0.3035E+00  0.3215E+02
   5.960  0.3073E+00  0.3215E+02
   5.970  0.3110E+00  0.3215E+02
   5.980  0.3149E+00  0.3215E+02
   5.990  0.3184E+00  0.3216E+02
   6.000  0.3210E+00  0.3216E+02
   6.010  0.3250E+00  0.3216E+02
   6.020  0.3290E+00  0.3217E+02
   6.030  0.3324E+00  0.3217E+02
   6.040  0.3360E+00  0.3217E+02
   6.050  0.3395E+00  0.3218E+02
   6.060  0.3453E+00  0.3218E+02
   6.070  0.3497E+00  0.3218E+02
   6.080  0.3540E+00  0.3219E+02
   6.090  0.3584E+00  0.3219E+02
   6.100  0.3607E+00  0.3219E+02
   6.110  0.3639E+00  0.3220E+02
   6.120  0.3690E+00  0.3220E+02
   6.130  0.3741E+00  0.3221E+02
   6.140  0.3785E+00  0.3221E+02
   6.150  0.3828E+00  0.3221E+02
   6.160  0.3872E+00  0.3222E+02
   6.170  0.3917E+00  0.3222E+02
   6.180  0.3992E+00  0.3223E+02
   6.190  0.4048E+00  0.3223E+02
   6.200  0.4085E+00  0.3223E+02
   6.210  0.4123E+00  0.3224E+02
   6.220  0.4159E+00  0.3224E+02
   6.230  0.4213E+00  0.3225E+02
   6.240  0.4269E+00  0.3225E+02
   6.250  0.4322E+00  0.3225E+02
   6.260  0.4379E+00  0.3226E+02
   6.270  0.4438E+00  0.3226E+02
   6.280  0.4521E+00  0.3227E+02
   6.290  0.4595E+00  0.3227E+02
   6.300  0.4650E+00  0.3228E+02
   6.310  0.4705E+00  0.3228E+02
   6.320  0.4758E+00  0.3229E+02
   6.330  0.4814E+00  0.3229E+02
   6.340  0.4881E+00  0.3230E+02
   6.350  0.4941E+00  0.3230E+02
   6.360  0.4996E+00  0.3231E+02
   6.370  0.5058E+00  0.3231E+02
   6.380  0.5151E+00  0.3232E+02
   6.390  0.5288E+00  0.3232E+02
   6.400  0.6494E+00  0.3233E+02
   6.410  0.7028E+00  0.3233E+02
   6.420  0.7044E+00  0.3234E+02
   6.430  0.7455E+00  0.3235E+02
   6.440  0.7605E+00  0.3236E+02
   6.450  0.7792E+00  0.3236E+02
   6.460  0.8170E+00  0.3237E+02
   6.470  0.8289E+00  0.3238E+02
   6.480  0.8537E+00  0.3239E+02
   6.490  0.9017E+00  0.3240E+02
   6.500  0.9278E+00  0.3241E+02
   6.510  0.9714E+00  0.3242E+02
   6.520  0.1016E+01  0.3243E+02
   6.530  0.1061E+01  0.3244E+02
   6.540  0.1108E+01  0.3245E+02
   6.550  0.1159E+01  0.3246E+02
   6.560  0.1222E+01  0.3247E+02
   6.570  0.1281E+01  0.3248E+02
   6.580  0.1364E+01  0.3250E+02
   6.590  0.1458E+01  0.3251E+02
   6.600  0.1573E+01  0.3252E+02
   6.610  0.1693E+01  0.3254E+02
   6.620  0.1808E+01  0.3256E+02
   6.630  0.1949E+01  0.3258E+02
   6.640  0.2091E+01  0.3260E+02
   6.650  0.2233E+01  0.3262E+02
   6.660  0.2410E+01  0.3264E+02
   6.670  0.2581E+01  0.3267E+02
   6.680  0.2742E+01  0.3269E+02
   6.690  0.2912E+01  0.3272E+02
   6.700  0.3075E+01  0.3275E+02
   6.710  0.3244E+01  0.3278E+02
   6.720  0.3417E+01  0.3282E+02
   6.730  0.3604E+01  0.3285E+02
   6.740  0.3800E+01  0.3289E+02
   6.750  0.4019E+01  0.3293E+02
   6.760  0.4179E+01  0.3297E+02
   6.770  0.4397E+01  0.3301E+02
   6.780  0.4668E+01  0.3306E+02
   6.790  0.4861E+01  0.3311E+02
   6.800  0.4787E+01  0.3315E+02
   6.810  0.4646E+01  0.3320E+02
   6.820  0.4501E+01  0.3325E+02
   6.830  0.4287E+01  0.3329E+02
   6.840  0.3975E+01  0.3333E+02
   6.850  0.3678E+01  0.3337E+02
   6.860  0.3486E+01  0.3341E+02
   6.870  0.3346E+01  0.3344E+02
   6.880  0.3235E+01  0.3347E+02
   6.890  0.3154E+01  0.3350E+02
   6.900  0.3063E+01  0.3354E+02
   6.910  0.2994E+01  0.3357E+02
   6.920  0.2938E+01  0.3360E+02
   6.930  0.2896E+01  0.3362E+02
   6.940  0.2860E+01  0.3365E+02
   6.950  0.2817E+01  0.3368E+02
   6.960  0.2787E+01  0.3371E+02
   6.970  0.2763E+01  0.3374E+02
   6.980  0.2746E+01  0.3377E+02
   6.990  0.2744E+01  0.3379E+02
   7.000  0.2747E+01  0.3382E+02
   7.010  0.2743E+01  0.3385E+02
   7.020  0.2761E+01  0.3387E+02
   7.030  0.2785E+01  0.3390E+02
   7.040  0.2798E+01  0.3393E+02
   7.050  0.2816E+01  0.3396E+02
   7.060  0.2833E+01  0.3399E+02
   7.070  0.2841E+01  0.3402E+02
   7.080  0.2850E+01  0.3404E+02
   7.090  0.2856E+01  0.3407E+02
   7.100  0.2857E+01  0.3410E+02
   7.110  0.2872E+01  0.3413E+02
   7.120  0.2879E+01  0.3416E+02
   7.130  0.2886E+01  0.3419E+02
   7.140  0.2892E+01  0.3422E+02
   7.150  0.2893E+01  0.3424E+02
   7.160  0.2906E+01  0.3427E+02
   7.170  0.2909E+01  0.3430E+02
   7.180  0.2951E+01  0.3433E+02
   7.190  0.2999E+01  0.3436E+02
   7.200  0.3068E+01  0.3439E+02
   7.210  0.3006E+01  0.3442E+02
   7.220  0.2816E+01  0.3445E+02
   7.230  0.2715E+01  0.3448E+02
   7.240  0.2656E+01  0.3451E+02
   7.250  0.2599E+01  0.3453E+02
   7.260  0.2561E+01  0.3456E+02
   7.270  0.2518E+01  0.3458E+02
   7.280  0.2495E+01  0.3461E+02
   7.290  0.2464E+01  0.3463E+02
   7.300  0.2442E+01  0.3466E+02
   7.310  0.2415E+01  0.3468E+02
   7.320  0.2414E+01  0.3471E+02
   7.330  0.2390E+01  0.3473E+02
   7.340  0.2375E+01  0.3475E+02
   7.350  0.2371E+01  0.3478E+02
   7.360  0.2363E+01  0.3480E+02
   7.370  0.2354E+01  0.3483E+02
   7.380  0.2356E+01  0.3485E+02
   7.390  0.2348E+01  0.3487E+02
   7.400  0.2355E+01  0.3490E+02
   7.410  0.2358E+01  0.3492E+02
   7.420  0.2357E+01  0.3494E+02
   7.430  0.2366E+01  0.3497E+02
   7.440  0.2386E+01  0.3499E+02
   7.450  0.2400E+01  0.3501E+02
   7.460  0.2411E+01  0.3504E+02
   7.470  0.2434E+01  0.3506E+02
   7.480  0.2457E+01  0.3509E+02
   7.490  0.2489E+01  0.3511E+02
   7.500  0.2534E+01  0.3514E+02
   7.510  0.2573E+01  0.3516E+02
   7.520  0.2640E+01  0.3519E+02
   7.530  0.2723E+01  0.3522E+02
   7.540  0.2832E+01  0.3524E+02
   7.550  0.3034E+01  0.3527E+02
   7.560  0.3224E+01  0.3530E+02
   7.570  0.3037E+01  0.3534E+02
   7.580  0.2960E+01  0.3537E+02
   7.590  0.2954E+01  0.3540E+02
   7.600  0.2926E+01  0.3543E+02
   7.610  0.2921E+01  0.3545E+02
   7.620  0.2887E+01  0.3548E+02
   7.630  0.2860E+01  0.3551E+02
   7.640  0.2848E+01  0.3554E+02
   7.650  0.2843E+01  0.3557E+02
   7.660  0.2808E+01  0.3560E+02
   7.670  0.2794E+01  0.3563E+02
   7.680  0.2743E+01  0.3565E+02
   7.690  0.2684E+01  0.3568E+02
   7.700  0.2670E+01  0.3571E+02
   7.710  0.2606E+01  0.3573E+02
   7.720  0.2558E+01  0.3576E+02
   7.730  0.2401E+01  0.3578E+02
   7.740  0.2354E+01  0.3581E+02
   7.750  0.2264E+01  0.3583E+02
   7.760  0.2171E+01  0.3585E+02
   7.770  0.1989E+01  0.3587E+02
   7.780  0.2114E+01  0.3589E+02
   7.790  0.2417E+01  0.3592E+02
   7.800  0.2280E+01  0.3595E+02
   7.810  0.1862E+01  0.3597E+02
   7.820  0.1397E+01  0.3599E+02
   7.830  0.6540E+00  0.3600E+02
   7.840  0.4229E-01  0.3600E+02
   7.850  0.0000E+00  0.3600E+02
   7.860  0.0000E+00  0.3600E+02
   7.870  0.0000E+00  0.3600E+02
   7.880  0.0000E+00  0.3600E+02
   7.890  0.0000E+00  0.3600E+02
   7.900  0.0000E+00  0.3600E+02
   7.910  0.0000E+00  0.3600E+02
   7.920  0.0000E+00  0.3600E+02
   7.930  0.0000E+00  0.3600E+02
   7.940  0.0000E+00  0.3600E+02
   7.950  0.0000E+00  0.3600E+02
   7.960  0.0000E+00  0.3600E+02
   7.970  0.0000E+00  0.3600E+02
   7.980  0.0000E+00  0.3600E+02
   7.990  0.0000E+00  0.3600E+02
   8.000  0.0000E+00  0.3600E+02
   8.010  0.0000E+00  0.3600E+02
   8.020  0.0000E+00  0.3600E+02
   8.030  0.0000E+00  0.3600E+02
   8.040  0.0000E+00  0.3600E+02
   8.050  0.0000E+00  0.3600E+02
   8.060  0.0000E+00  0.3600E+02
   8.070  0.0000E+00  0.3600E+02
   8.080  0.0000E+00  0.3600E+02
   8.090  0.0000E+00  0.3600E+02
   8.100  0.0000E+00  0.3600E+02
   8.110  0.0000E+00  0.3600E+02
   8.120  0.0000E+00  0.3600E+02
   8.130  0.0000E+00  0.3600E+02
   8.140  0.0000E+00  0.3600E+02
   8.150  0.0000E+00  0.3600E+02
   8.160  0.0000E+00  0.3600E+02
   8.170  0.0000E+00  0.3600E+02
   8.180  0.0000E+00  0.3600E+02
   8.190  0.0000E+00  0.3600E+02
   8.200  0.0000E+00  0.3600E+02
   8.210  0.0000E+00  0.3600E+02
   8.220  0.0000E+00  0.3600E+02
   8.230  0.0000E+00  0.3600E+02
   8.240  0.0000E+00  0.3600E+02
   8.250  0.0000E+00  0.3600E+02
   8.260  0.0000E+00  0.3600E+02
   8.270  0.0000E+00  0.3600E+02
   8.280  0.0000E+00  0.3600E+02
   8.290  0.0000E+00  0.3600E+02
   8.300  0.0000E+00  0.3600E+02
   8.310  0.0000E+00  0.3600E+02
   8.320  0.0000E+00  0.3600E+02
   8.330  0.0000E+00  0.3600E+02
   8.340  0.0000E+00  0.3600E+02
   8.350  0.0000E+00  0.3600E+02
   8.360  0.0000E+00  0.3600E+02
   8.370  0.0000E+00  0.3600E+02
   8.380  0.0000E+00  0.3600E+02
   8.390  0.0000E+00  0.3600E+02
   8.400  0.0000E+00  0.3600E+02
   8.410  0.0000E+00  0.3600E+02
   8.420  0.0000E+00  0.3600E+02
   8.430  0.0000E+00  0.3600E+02
   8.440  0.0000E+00  0.3600E+02
   8.450  0.0000E+00  0.3600E+02
   8.460  0.0000E+00  0.3600E+02
   8.470  0.0000E+00  0.3600E+02
   8.480  0.0000E+00  0.3600E+02
   8.490  0.0000E+00  0.3600E+02
   8.500  0.0000E+00  0.3600E+02
   8.510  0.0000E+00  0.3600E+02
   8.520  0.0000E+00  0.3600E+02
   8.530  0.0000E+00  0.3600E+02
   8.540  0.0000E+00  0.3600E+02
   8.550  0.0000E+00  0.3600E+02
   8.560  0.0000E+00  0.3600E+02
   8.570  0.0000E+00  0.3600E+02
   8.580  0.0000E+00  0.3600E+02
   8.590  0.0000E+00  0.3600E+02
   8.600  0.0000E+00  0.3600E+02
   8.610  0.0000E+00  0.3600E+02
   8.620  0.0000E+00  0.3600E+02
   8.630  0.0000E+00  0.3600E+02
   8.640  0.0000E+00  0.3600E+02
   8.650  0.0000E+00  0.3600E+02
   8.660  0.0000E+00  0.3600E+02
   8.670  0.0000E+00  0.3600E+02
   8.680  0.0000E+00  0.3600E+02
   8.690  0.0000E+00  0.3600E+02
   8.700  0.0000E+00  0.3600E+02
   8.710  0.0000E+00  0.3600E+02
   8.720  0.0000E+00  0.3600E+02
   8.730  0.0000E+00  0.3600E+02
   8.740  0.0000E+00  0.3600E+02
   8.750  0.0000E+00  0.3600E+02
   8.760  0.0000E+00  0.3600E+02
   8.770  0.0000E+00  0.3600E+02
   8.780  0.0000E+00  0.3600E+02
   8.790  0.0000E+00  0.3600E+02
   8.800  0.0000E+00  0.3600E+02
   8.810  0.0000E+00  0.3600E+02
   8.820  0.0000E+00  0.3600E+02
   8.830  0.0000E+00  0.3600E+02
   8.840  0.0000E+00  0.3600E+02
   8.850  0.0000E+00  0.3600E+02
   8.860  0.0000E+00  0.3600E+02
   8.870  0.0000E+00  0.3600E+02
   8.880  0.0000E+00  0.3600E+02
   8.890  0.7781E-04  0.3600E+02
   8.900  0.7590E-03  0.3600E+02
   8.910  0.2585E-02  0.3600E+02
   8.920  0.3790E-02  0.3600E+02
   8.930  0.5133E-02  0.3600E+02
   8.940  0.6615E-02  0.3600E+02
   8.950  0.8387E-02  0.3600E+02
   8.960  0.9797E-02  0.3600E+02
   8.970  0.1114E-01  0.3600E+02
   8.980  0.1257E-01  0.3600E+02
   8.990  0.1408E-01  0.3600E+02
   9.000  0.1567E-01  0.3600E+02
   9.010  0.1735E-01  0.3600E+02
   9.020  0.1898E-01  0.3600E+02
   9.030  0.2055E-01  0.3600E+02
   9.040  0.2209E-01  0.3600E+02
   9.050  0.2361E-01  0.3600E+02
   9.060  0.2516E-01  0.3600E+02
   9.070  0.2678E-01  0.3600E+02
   9.080  0.2846E-01  0.3600E+02
   9.090  0.3020E-01  0.3600E+02
   9.100  0.3200E-01  0.3600E+02
   9.110  0.3374E-01  0.3600E+02
   9.120  0.3542E-01  0.3600E+02
   9.130  0.3713E-01  0.3600E+02
   9.140  0.3885E-01  0.3600E+02
   9.150  0.4059E-01  0.3601E+02
   9.160  0.4233E-01  0.3601E+02
   9.170  0.4408E-01  0.3601E+02
   9.180  0.4588E-01  0.3601E+02
   9.190  0.4773E-01  0.3601E+02
   9.200  0.4964E-01  0.3601E+02
   9.210  0.5160E-01  0.3601E+02
   9.220  0.5356E-01  0.3601E+02
   9.230  0.5546E-01  0.3601E+02
   9.240  0.5735E-01  0.3601E+02
   9.250  0.5924E-01  0.3601E+02
   9.260  0.6118E-01  0.3601E+02
   9.270  0.6315E-01  0.3601E+02
   9.280  0.6513E-01  0.3601E+02
   9.290  0.6713E-01  0.3601E+02
   9.300  0.6916E-01  0.3601E+02
   9.310  0.7120E-01  0.3601E+02
   9.320  0.7329E-01  0.3601E+02
   9.330  0.7769E-01  0.3602E+02
   9.340  0.8911E-01  0.3602E+02
   9.350  0.1073E+00  0.3602E+02
   9.360  0.1218E+00  0.3602E+02
   9.370  0.1380E+00  0.3602E+02
   9.380  0.1558E+00  0.3602E+02
   9.390  0.1731E+00  0.3602E+02
   9.400  0.1894E+00  0.3602E+02
   9.410  0.2067E+00  0.3603E+02
   9.420  0.2238E+00  0.3603E+02
   9.430  0.2409E+00  0.3603E+02
   9.440  0.2590E+00  0.3603E+02
   9.450  0.2778E+00  0.3604E+02
   9.460  0.2966E+00  0.3604E+02
   9.470  0.3153E+00  0.3604E+02
   9.480  0.3346E+00  0.3605E+02
   9.490  0.3535E+00  0.3605E+02
   9.500  0.3722E+00  0.3605E+02
   9.510  0.3915E+00  0.3606E+02
   9.520  0.4114E+00  0.3606E+02
   9.530  0.4319E+00  0.3606E+02
   9.540  0.4532E+00  0.3607E+02
   9.550  0.4750E+00  0.3607E+02
   9.560  0.5663E+00  0.3608E+02
   9.570  0.7829E+00  0.3608E+02
   9.580  0.6721E+00  0.3609E+02
   9.590  0.7142E+00  0.3610E+02
   9.600  0.7875E+00  0.3611E+02
   9.610  0.7803E+00  0.3611E+02
   9.620  0.8117E+00  0.3612E+02
   9.630  0.7877E+00  0.3613E+02
   9.640  0.7972E+00  0.3614E+02
   9.650  0.8190E+00  0.3615E+02
   9.660  0.8392E+00  0.3616E+02
   9.670  0.8387E+00  0.3616E+02
   9.680  0.8203E+00  0.3617E+02
   9.690  0.8159E+00  0.3618E+02
   9.700  0.8322E+00  0.3619E+02
   9.710  0.8477E+00  0.3620E+02
   9.720  0.8613E+00  0.3621E+02
   9.730  0.8536E+00  0.3621E+02
   9.740  0.8650E+00  0.3622E+02
   9.750  0.8625E+00  0.3623E+02
   9.760  0.8606E+00  0.3624E+02
   9.770  0.8678E+00  0.3625E+02
   9.780  0.8839E+00  0.3626E+02
   9.790  0.8935E+00  0.3627E+02
   9.800  0.8886E+00  0.3627E+02
   9.810  0.8921E+00  0.3628E+02
   9.820  0.9045E+00  0.3629E+02
   9.830  0.9160E+00  0.3630E+02
   9.840  0.9253E+00  0.3631E+02
   9.850  0.9249E+00  0.3632E+02
   9.860  0.9284E+00  0.3633E+02
   9.870  0.9397E+00  0.3634E+02
   9.880  0.9460E+00  0.3635E+02
   9.890  0.9464E+00  0.3636E+02
   9.900  0.9536E+00  0.3637E+02
   9.910  0.9639E+00  0.3638E+02
   9.920  0.9891E+00  0.3639E+02
   9.930  0.1042E+01  0.3640E+02
   9.940  0.1098E+01  0.3641E+02
   9.950  0.1163E+01  0.3642E+02
   9.960  0.1222E+01  0.3643E+02
   9.970  0.1284E+01  0.3644E+02
   9.980  0.1350E+01  0.3646E+02
   9.990  0.1415E+01  0.3647E+02
  10.000  0.1495E+01  0.3648E+02
  10.010  0.1577E+01  0.3650E+02
  10.020  0.1667E+01  0.3652E+02
  10.030  0.2066E+01  0.3654E+02
  10.040  0.2309E+01  0.3656E+02
  10.050  0.2721E+01  0.3658E+02
  10.060  0.2783E+01  0.3661E+02
  10.070  0.3034E+01  0.3664E+02
  10.080  0.3166E+01  0.3667E+02
  10.090  0.3209E+01  0.3670E+02
  10.100  0.3384E+01  0.3673E+02
  10.110  0.3795E+01  0.3677E+02
  10.120  0.3596E+01  0.3681E+02
  10.130  0.3431E+01  0.3684E+02
  10.140  0.3388E+01  0.3688E+02
  10.150  0.3356E+01  0.3691E+02
  10.160  0.3355E+01  0.3694E+02
  10.170  0.3300E+01  0.3698E+02
  10.180  0.3242E+01  0.3701E+02
  10.190  0.3238E+01  0.3704E+02
  10.200  0.3251E+01  0.3707E+02
  10.210  0.3305E+01  0.3711E+02
  10.220  0.3426E+01  0.3714E+02
  10.230  0.3733E+01  0.3718E+02
  10.240  0.3830E+01  0.3722E+02
  10.250  0.3633E+01  0.3725E+02
  10.260  0.3496E+01  0.3729E+02
  10.270  0.3417E+01  0.3732E+02
  10.280  0.3346E+01  0.3736E+02
  10.290  0.3259E+01  0.3739E+02
  10.300  0.3156E+01  0.3742E+02
  10.310  0.3069E+01  0.3745E+02
  10.320  0.2977E+01  0.3748E+02
  10.330  0.2875E+01  0.3751E+02
  10.340  0.2743E+01  0.3754E+02
  10.350  0.2569E+01  0.3757E+02
  10.360  0.2490E+01  0.3759E+02
  10.370  0.2415E+01  0.3762E+02
  10.380  0.2360E+01  0.3764E+02
  10.390  0.2316E+01  0.3766E+02
  10.400  0.2270E+01  0.3769E+02
  10.410  0.2231E+01  0.3771E+02
  10.420  0.2188E+01  0.3773E+02
  10.430  0.2153E+01  0.3775E+02
  10.440  0.2125E+01  0.3778E+02
  10.450  0.2097E+01  0.3780E+02
  10.460  0.2069E+01  0.3782E+02
  10.470  0.2039E+01  0.3784E+02
  10.480  0.2011E+01  0.3786E+02
  10.490  0.1989E+01  0.3788E+02
  10.500  0.1970E+01  0.3790E+02
  10.510  0.1951E+01  0.3792E+02
  10.520  0.1930E+01  0.3794E+02
  10.530  0.1911E+01  0.3796E+02
  10.540  0.1890E+01  0.3797E+02
  10.550  0.1870E+01  0.3799E+02
  10.560  0.1853E+01  0.3801E+02
  10.570  0.1839E+01  0.3803E+02
  10.580  0.1825E+01  0.3805E+02
  10.590  0.1810E+01  0.3807E+02
  10.600  0.1797E+01  0.3809E+02
  10.610  0.1784E+01  0.3810E+02
  10.620  0.1768E+01  0.3812E+02
  10.630  0.1755E+01  0.3814E+02
  10.640  0.1745E+01  0.3816E+02
  10.650  0.1735E+01  0.3817E+02
  10.660  0.1727E+01  0.3819E+02
  10.670  0.1717E+01  0.3821E+02
  10.680  0.1706E+01  0.3823E+02
  10.690  0.1694E+01  0.3824E+02
  10.700  0.1686E+01  0.3826E+02
  10.710  0.1812E+01  0.3828E+02
  10.720  0.1842E+01  0.3830E+02
  10.730  0.1824E+01  0.3831E+02
  10.740  0.1831E+01  0.3833E+02
  10.750  0.1814E+01  0.3835E+02
  10.760  0.1826E+01  0.3837E+02
  10.770  0.1822E+01  0.3839E+02
  10.780  0.1811E+01  0.3840E+02
  10.790  0.1809E+01  0.3842E+02
  10.800  0.1820E+01  0.3844E+02
  10.810  0.1814E+01  0.3846E+02
  10.820  0.1811E+01  0.3848E+02
  10.830  0.1814E+01  0.3850E+02
  10.840  0.1815E+01  0.3851E+02
  10.850  0.1825E+01  0.3853E+02
  10.860  0.1816E+01  0.3855E+02
  10.870  0.1814E+01  0.3857E+02
  10.880  0.1821E+01  0.3859E+02
  10.890  0.1825E+01  0.3860E+02
  10.900  0.1831E+01  0.3862E+02
  10.910  0.1832E+01  0.3864E+02
  10.920  0.1832E+01  0.3866E+02
  10.930  0.1831E+01  0.3868E+02
  10.940  0.1838E+01  0.3870E+02
  10.950  0.1843E+01  0.3871E+02
  10.960  0.1850E+01  0.3873E+02
  10.970  0.1852E+01  0.3875E+02
  10.980  0.1861E+01  0.3877E+02
  10.990  0.1871E+01  0.3879E+02
  11.000  0.1878E+01  0.3881E+02
  11.010  0.1892E+01  0.3883E+02
  11.020  0.1908E+01  0.3885E+02
  11.030  0.1922E+01  0.3886E+02
  11.040  0.1930E+01  0.3888E+02
  11.050  0.1950E+01  0.3890E+02
  11.060  0.1975E+01  0.3892E+02
  11.070  0.2004E+01  0.3894E+02
  11.080  0.2034E+01  0.3896E+02
  11.090  0.2075E+01  0.3898E+02
  11.100  0.2117E+01  0.3900E+02
  11.110  0.2172E+01  0.3903E+02
  11.120  0.2162E+01  0.3905E+02
  11.130  0.2150E+01  0.3907E+02
  11.140  0.2160E+01  0.3909E+02
  11.150  0.2180E+01  0.3911E+02
  11.160  0.2143E+01  0.3913E+02
  11.170  0.2101E+01  0.3916E+02
  11.180  0.1986E+01  0.3918E+02
  11.190  0.1946E+01  0.3920E+02
  11.200  0.2077E+01  0.3922E+02
  11.210  0.2296E+01  0.3924E+02
  11.220  0.2331E+01  0.3926E+02
  11.230  0.2402E+01  0.3928E+02
  11.240  0.2509E+01  0.3931E+02
  11.250  0.2511E+01  0.3933E+02
  11.260  0.2522E+01  0.3936E+02
  11.270  0.2524E+01  0.3939E+02
  11.280  0.2704E+01  0.3941E+02
  11.290  0.2762E+01  0.3944E+02
  11.300  0.2666E+01  0.3947E+02
  11.310  0.2498E+01  0.3949E+02
  11.320  0.2370E+01  0.3952E+02
  11.330  0.2320E+01  0.3954E+02
  11.340  0.2238E+01  0.3956E+02
  11.350  0.2165E+01  0.3958E+02
  11.360  0.2210E+01  0.3961E+02
  11.370  0.2150E+01  0.3963E+02
  11.380  0.2198E+01  0.3965E+02
  11.390  0.2168E+01  0.3967E+02
  11.400  0.2004E+01  0.3969E+02
  11.410  0.2009E+01  0.3971E+02
  11.420  0.2031E+01  0.3973E+02
  11.430  0.2045E+01  0.3975E+02
  11.440  0.1997E+01  0.3977E+02
  11.450  0.1813E+01  0.3979E+02
  11.460  0.1579E+01  0.3981E+02
  11.470  0.1548E+01  0.3983E+02
  11.480  0.1303E+01  0.3984E+02
  11.490  0.1151E+01  0.3985E+02
  11.500  0.1073E+01  0.3986E+02
  11.510  0.1002E+01  0.3987E+02
  11.520  0.9344E+00  0.3988E+02
  11.530  0.8704E+00  0.3989E+02
  11.540  0.8132E+00  0.3990E+02
  11.550  0.7614E+00  0.3991E+02
  11.560  0.7117E+00  0.3992E+02
  11.570  0.6636E+00  0.3992E+02
  11.580  0.6162E+00  0.3993E+02
  11.590  0.5699E+00  0.3994E+02
  11.600  0.5306E+00  0.3994E+02
  11.610  0.4951E+00  0.3995E+02
  11.620  0.4641E+00  0.3995E+02
  11.630  0.4374E+00  0.3995E+02
  11.640  0.4145E+00  0.3996E+02
  11.650  0.3960E+00  0.3996E+02
  11.660  0.3800E+00  0.3997E+02
  11.670  0.3661E+00  0.3997E+02
  11.680  0.3552E+00  0.3997E+02
  11.690  0.3467E+00  0.3998E+02
  11.700  0.3404E+00  0.3998E+02
  11.710  0.3353E+00  0.3998E+02
  11.720  0.3312E+00  0.3999E+02
  11.730  0.3278E+00  0.3999E+02
  11.740  0.3261E+00  0.3999E+02
  11.750  0.3268E+00  0.4000E+02
  11.760  0.3298E+00  0.4000E+02
  11.770  0.3375E+00  0.4000E+02
  11.780  0.3495E+00  0.4001E+02
  11.790  0.3617E+00  0.4001E+02
  11.800  0.3727E+00  0.4002E+02
  11.810  0.3847E+00  0.4002E+02
  11.820  0.3979E+00  0.4002E+02
  11.830  0.4098E+00  0.4003E+02
  11.840  0.4257E+00  0.4003E+02
  11.850  0.4469E+00  0.4004E+02
  11.860  0.4709E+00  0.4004E+02
  11.870  0.4974E+00  0.4004E+02
  11.880  0.5277E+00  0.4005E+02
  11.890  0.5638E+00  0.4006E+02
  11.900  0.6086E+00  0.4006E+02
  11.910  0.6587E+00  0.4007E+02
  11.920  0.7142E+00  0.4007E+02
  11.930  0.7756E+00  0.4008E+02
  11.940  0.8452E+00  0.4009E+02
  11.950  0.9243E+00  0.4010E+02
  11.960  0.1009E+01  0.4011E+02
  11.970  0.1371E+01  0.4012E+02
  11.980  0.1632E+01  0.4014E+02
  11.990  0.1698E+01  0.4015E+02
  12.000  0.1807E+01  0.4017E+02
  12.010  0.1972E+01  0.4019E+02
  12.020  0.2262E+01  0.4021E+02
  12.030  0.2549E+01  0.4024E+02
  12.040  0.2725E+01  0.4026E+02
  12.050  0.2942E+01  0.4029E+02
  12.060  0.3192E+01  0.4032E+02
  12.070  0.3524E+01  0.4035E+02
  12.080  0.3409E+01  0.4039E+02
  12.090  0.3808E+01  0.4042E+02
  12.100  0.4330E+01  0.4046E+02
  12.110  0.4328E+01  0.4051E+02
  12.120  0.3741E+01  0.4055E+02
  12.130  0.3649E+01  0.4059E+02
  12.140  0.3480E+01  0.4062E+02
  12.150  0.3700E+01  0.4066E+02
  12.160  0.3748E+01  0.4069E+02
  12.170  0.3922E+01  0.4073E+02
  12.180  0.4013E+01  0.4077E+02
  12.190  0.4040E+01  0.4081E+02
  12.200  0.4048E+01  0.4085E+02
  12.210  0.4020E+01  0.4089E+02
  12.220  0.3990E+01  0.4093E+02
  12.230  0.4063E+01  0.4097E+02
  12.240  0.3994E+01  0.4101E+02
  12.250  0.3791E+01  0.4105E+02
  12.260  0.3730E+01  0.4109E+02
  12.270  0.3733E+01  0.4113E+02
  12.280  0.3733E+01  0.4117E+02
  12.290  0.3685E+01  0.4120E+02
  12.300  0.3648E+01  0.4124E+02
  12.310  0.3641E+01  0.4128E+02
  12.320  0.3604E+01  0.4131E+02
  12.330  0.3579E+01  0.4135E+02
  12.340  0.3563E+01  0.4138E+02
  12.350  0.3525E+01  0.4142E+02
  12.360  0.3527E+01  0.4145E+02
  12.370  0.3520E+01  0.4149E+02
  12.380  0.3606E+01  0.4153E+02
  12.390  0.3912E+01  0.4156E+02
  12.400  0.3959E+01  0.4160E+02
  12.410  0.3608E+01  0.4164E+02
  12.420  0.3519E+01  0.4168E+02
  12.430  0.3437E+01  0.4171E+02
  12.440  0.3336E+01  0.4174E+02
  12.450  0.3288E+01  0.4178E+02
  12.460  0.3242E+01  0.4181E+02
  12.470  0.3191E+01  0.4184E+02
  12.480  0.3150E+01  0.4187E+02
  12.490  0.3096E+01  0.4191E+02
  12.500  0.3059E+01  0.4194E+02
  12.510  0.3020E+01  0.4197E+02
  12.520  0.2980E+01  0.4200E+02
  12.530  0.2948E+01  0.4203E+02
  12.540  0.2920E+01  0.4206E+02
  12.550  0.2889E+01  0.4208E+02
  12.560  0.2864E+01  0.4211E+02
  12.570  0.2830E+01  0.4214E+02
  12.580  0.2801E+01  0.4217E+02
  12.590  0.2770E+01  0.4220E+02
  12.600  0.2745E+01  0.4223E+02
  12.610  0.2723E+01  0.4225E+02
  12.620  0.2706E+01  0.4228E+02
  12.630  0.2679E+01  0.4231E+02
  12.640  0.2653E+01  0.4233E+02
  12.650  0.2630E+01  0.4236E+02
  12.660  0.2614E+01  0.4239E+02
  12.670  0.2635E+01  0.4241E+02
  12.680  0.2616E+01  0.4244E+02
  12.690  0.2614E+01  0.4246E+02
  12.700  0.2989E+01  0.4249E+02
  12.710  0.3189E+01  0.4253E+02
  12.720  0.4163E+01  0.4256E+02
  12.730  0.1996E+01  0.4260E+02
  12.740  0.1977E+01  0.4262E+02
  12.750  0.1957E+01  0.4263E+02
  12.760  0.1940E+01  0.4265E+02
  12.770  0.1925E+01  0.4267E+02
  12.780  0.1907E+01  0.4269E+02
  12.790  0.1895E+01  0.4271E+02
  12.800  0.1883E+01  0.4273E+02
  12.810  0.1865E+01  0.4275E+02
  12.820  0.1848E+01  0.4277E+02
  12.830  0.1829E+01  0.4279E+02
  12.840  0.1811E+01  0.4280E+02
  12.850  0.1792E+01  0.4282E+02
  12.860  0.1771E+01  0.4284E+02
  12.870  0.1752E+01  0.4286E+02
  12.880  0.1733E+01  0.4288E+02
  12.890  0.1721E+01  0.4289E+02
  12.900  0.1708E+01  0.4291E+02
  12.910  0.1702E+01  0.4293E+02
  12.920  0.1691E+01  0.4294E+02
  12.930  0.1681E+01  0.4296E+02
  12.940  0.1670E+01  0.4298E+02
  12.950  0.1660E+01  0.4299E+02
  12.960  0.1657E+01  0.4301E+02
  12.970  0.1653E+01  0.4303E+02
  12.980  0.1762E+01  0.4304E+02
  12.990  0.1820E+01  0.4306E+02
  13.000  0.1870E+01  0.4308E+02
  13.010  0.1902E+01  0.4310E+02
  13.020  0.1962E+01  0.4312E+02
  13.030  0.2013E+01  0.4314E+02
  13.040  0.2237E+01  0.4316E+02
  13.050  0.2559E+01  0.4318E+02
  13.060  0.2912E+01  0.4321E+02
  13.070  0.4026E+01  0.4324E+02
  13.080  0.3167E+01  0.4328E+02
  13.090  0.3163E+01  0.4331E+02
  13.100  0.3270E+01  0.4334E+02
  13.110  0.3449E+01  0.4337E+02
  13.120  0.2514E+01  0.4340E+02
  13.130  0.2345E+01  0.4343E+02
  13.140  0.2472E+01  0.4345E+02
  13.150  0.2330E+01  0.4347E+02
  13.160  0.2543E+01  0.4350E+02
  13.170  0.2735E+01  0.4353E+02
  13.180  0.2987E+01  0.4355E+02
  13.190  0.3101E+01  0.4358E+02
  13.200  0.3643E+01  0.4362E+02
  13.210  0.3428E+01  0.4365E+02
  13.220  0.2570E+01  0.4368E+02
  13.230  0.2421E+01  0.4371E+02
  13.240  0.2398E+01  0.4373E+02
  13.250  0.2366E+01  0.4376E+02
  13.260  0.2331E+01  0.4378E+02
  13.270  0.2238E+01  0.4380E+02
  13.280  0.2179E+01  0.4382E+02
  13.290  0.2156E+01  0.4385E+02
  13.300  0.2254E+01  0.4387E+02
  13.310  0.2375E+01  0.4389E+02
  13.320  0.2788E+01  0.4392E+02
  13.330  0.2648E+01  0.4394E+02
  13.340  0.1922E+01  0.4397E+02
  13.350  0.1629E+01  0.4398E+02
  13.360  0.1480E+01  0.4400E+02
  13.370  0.1179E+01  0.4401E+02
  13.380  0.1115E+01  0.4403E+02
  13.390  0.1039E+01  0.4404E+02
  13.400  0.9902E+00  0.4405E+02
  13.410  0.9481E+00  0.4406E+02
  13.420  0.9113E+00  0.4406E+02
  13.430  0.8755E+00  0.4407E+02
  13.440  0.8389E+00  0.4408E+02
  13.450  0.7869E+00  0.4409E+02
  13.460  0.7452E+00  0.4410E+02
  13.470  0.6723E+00  0.4411E+02
  13.480  0.6465E+00  0.4411E+02
  13.490  0.6363E+00  0.4412E+02
  13.500  0.6411E+00  0.4412E+02
  13.510  0.6504E+00  0.4413E+02
  13.520  0.6634E+00  0.4414E+02
  13.530  0.6778E+00  0.4414E+02
  13.540  0.6925E+00  0.4415E+02
  13.550  0.7161E+00  0.4416E+02
  13.560  0.7499E+00  0.4417E+02
  13.570  0.7882E+00  0.4417E+02
  13.580  0.8284E+00  0.4418E+02
  13.590  0.8680E+00  0.4419E+02
  13.600  0.9098E+00  0.4420E+02
  13.610  0.9409E+00  0.4421E+02
  13.620  0.9882E+00  0.4422E+02
  13.630  0.1113E+01  0.4423E+02
  13.640  0.1179E+01  0.4424E+02
  13.650  0.1239E+01  0.4425E+02
  13.660  0.1669E+01  0.4427E+02
  13.670  0.1998E+01  0.4428E+02
  13.680  0.1789E+01  0.4430E+02
  13.690  0.1663E+01  0.4432E+02
  13.700  0.1612E+01  0.4434E+02
  13.710  0.1588E+01  0.4435E+02
  13.720  0.1568E+01  0.4437E+02
  13.730  0.1598E+01  0.4438E+02
  13.740  0.1599E+01  0.4440E+02
  13.750  0.1587E+01  0.4442E+02
  13.760  0.1637E+01  0.4443E+02
  13.770  0.1602E+01  0.4445E+02
  13.780  0.1475E+01  0.4446E+02
  13.790  0.1531E+01  0.4448E+02
  13.800  0.1600E+01  0.4450E+02
  13.810  0.1681E+01  0.4451E+02
  13.820  0.1723E+01  0.4453E+02
  13.830  0.1758E+01  0.4455E+02
  13.840  0.1790E+01  0.4456E+02
  13.850  0.1826E+01  0.4458E+02
  13.860  0.1883E+01  0.4460E+02
  13.870  0.1930E+01  0.4462E+02
  13.880  0.1978E+01  0.4464E+02
  13.890  0.2001E+01  0.4466E+02
  13.900  0.2003E+01  0.4468E+02
  13.910  0.1996E+01  0.4470E+02
  13.920  0.1987E+01  0.4472E+02
  13.930  0.1992E+01  0.4474E+02
  13.940  0.2012E+01  0.4476E+02
  13.950  0.2029E+01  0.4478E+02
  13.960  0.2057E+01  0.4480E+02
  13.970  0.2093E+01  0.4482E+02
  13.980  0.2130E+01  0.4484E+02
  13.990  0.2166E+01  0.4486E+02
  14.000  0.2214E+01  0.4488E+02
  14.010  0.2262E+01  0.4491E+02
  14.020  0.2313E+01  0.4493E+02
  14.030  0.2367E+01  0.4495E+02
  14.040  0.2436E+01  0.4498E+02
  14.050  0.2510E+01  0.4500E+02
  14.060  0.2597E+01  0.4503E+02
  14.070  0.2695E+01  0.4505E+02
  14.080  0.2793E+01  0.4508E+02
  14.090  0.2903E+01  0.4511E+02
  14.100  0.3045E+01  0.4514E+02
  14.110  0.3997E+01  0.4517E+02
  14.120  0.4234E+01  0.4521E+02
  14.130  0.4402E+01  0.4526E+02
  14.140  0.4592E+01  0.4530E+02
  14.150  0.4764E+01  0.4535E+02
  14.160  0.5042E+01  0.4540E+02
  14.170  0.5292E+01  0.4545E+02
  14.180  0.6411E+01  0.4551E+02
  14.190  0.5029E+01  0.4556E+02
  14.200  0.4705E+01  0.4561E+02
  14.210  0.4736E+01  0.4566E+02
  14.220  0.4739E+01  0.4570E+02
  14.230  0.4799E+01  0.4575E+02
  14.240  0.5007E+01  0.4580E+02
  14.250  0.5220E+01  0.4585E+02
  14.260  0.5490E+01  0.4590E+02
  14.270  0.5834E+01  0.4596E+02
  14.280  0.7053E+01  0.4602E+02
  14.290  0.7799E+01  0.4610E+02
  14.300  0.8624E+01  0.4618E+02
  14.310  0.1010E+02  0.4628E+02
  14.320  0.6881E+01  0.4636E+02
  14.330  0.4624E+01  0.4642E+02
  14.340  0.4412E+01  0.4646E+02
  14.350  0.5503E+01  0.4652E+02
  14.360  0.6837E+01  0.4658E+02
  14.370  0.8354E+01  0.4666E+02
  14.380  0.8422E+01  0.4675E+02
  14.390  0.6932E+01  0.4682E+02
  14.400  0.6275E+01  0.4689E+02
  14.410  0.5977E+01  0.4695E+02
  14.420  0.5890E+01  0.4701E+02
  14.430  0.5907E+01  0.4707E+02
  14.440  0.5861E+01  0.4713E+02
  14.450  0.5966E+01  0.4719E+02
  14.460  0.5931E+01  0.4725E+02
  14.470  0.5895E+01  0.4730E+02
  14.480  0.5696E+01  0.4736E+02
  14.490  0.5608E+01  0.4742E+02
  14.500  0.5453E+01  0.4747E+02
  14.510  0.5179E+01  0.4753E+02
  14.520  0.5222E+01  0.4758E+02
  14.530  0.5413E+01  0.4763E+02
  14.540  0.5560E+01  0.4769E+02
  14.550  0.5762E+01  0.4774E+02
  14.560  0.6283E+01  0.4780E+02
  14.570  0.6754E+01  0.4787E+02
  14.580  0.7493E+01  0.4794E+02
  14.590  0.7163E+01  0.4802E+02
  14.600  0.7107E+01  0.4809E+02
  14.610  0.5931E+01  0.4815E+02
  14.620  0.5750E+01  0.4821E+02
  14.630  0.5534E+01  0.4826E+02
  14.640  0.5234E+01  0.4832E+02
  14.650  0.4539E+01  0.4837E+02
  14.660  0.4118E+01  0.4841E+02
  14.670  0.3894E+01  0.4845E+02
  14.680  0.4030E+01  0.4849E+02
  14.690  0.4318E+01  0.4853E+02
  14.700  0.4805E+01  0.4858E+02
  14.710  0.5105E+01  0.4863E+02
  14.720  0.4811E+01  0.4868E+02
  14.730  0.4243E+01  0.4872E+02
  14.740  0.3988E+01  0.4876E+02
  14.750  0.3871E+01  0.4880E+02
  14.760  0.3670E+01  0.4884E+02
  14.770  0.3677E+01  0.4888E+02
  14.780  0.3654E+01  0.4892E+02
  14.790  0.3651E+01  0.4895E+02
  14.800  0.3647E+01  0.4899E+02
  14.810  0.3616E+01  0.4902E+02
  14.820  0.3578E+01  0.4906E+02
  14.830  0.3553E+01  0.4910E+02
  14.840  0.3511E+01  0.4913E+02
  14.850  0.3488E+01  0.4917E+02
  14.860  0.3445E+01  0.4920E+02
  14.870  0.3401E+01  0.4924E+02
  14.880  0.3372E+01  0.4927E+02
  14.890  0.3360E+01  0.4930E+02
  14.900  0.3364E+01  0.4934E+02
  14.910  0.3351E+01  0.4937E+02
  14.920  0.3341E+01  0.4940E+02
  14.930  0.3350E+01  0.4944E+02
  14.940  0.3360E+01  0.4947E+02
  14.950  0.3363E+01  0.4950E+02
  14.960  0.3355E+01  0.4954E+02
  14.970  0.3362E+01  0.4957E+02
  14.980  0.3406E+01  0.4961E+02
  14.990  0.3416E+01  0.4964E+02
  15.000  0.3436E+01  0.4967E+02
