#  E (eV)   dos(E)     Int dos(E) EFermi =    5.453 eV
 -15.000  0.0000E+00  0.0000E+00
 -14.990  0.0000E+00  0.0000E+00
 -14.980  0.0000E+00  0.0000E+00
 -14.970  0.0000E+00  0.0000E+00
 -14.960  0.0000E+00  0.0000E+00
 -14.950  0.0000E+00  0.0000E+00
 -14.940  0.0000E+00  0.0000E+00
 -14.930  0.0000E+00  0.0000E+00
 -14.920  0.0000E+00  0.0000E+00
 -14.910  0.0000E+00  0.0000E+00
 -14.900  0.0000E+00  0.0000E+00
 -14.890  0.0000E+00  0.0000E+00
 -14.880  0.0000E+00  0.0000E+00
 -14.870  0.0000E+00  0.0000E+00
 -14.860  0.0000E+00  0.0000E+00
 -14.850  0.0000E+00  0.0000E+00
 -14.840  0.0000E+00  0.0000E+00
 -14.830  0.0000E+00  0.0000E+00
 -14.820  0.0000E+00  0.0000E+00
 -14.810  0.0000E+00  0.0000E+00
 -14.800  0.0000E+00  0.0000E+00
 -14.790  0.0000E+00  0.0000E+00
 -14.780  0.0000E+00  0.0000E+00
 -14.770  0.0000E+00  0.0000E+00
 -14.760  0.0000E+00  0.0000E+00
 -14.750  0.0000E+00  0.0000E+00
 -14.740  0.0000E+00  0.0000E+00
 -14.730  0.0000E+00  0.0000E+00
 -14.720  0.0000E+00  0.0000E+00
 -14.710  0.0000E+00  0.0000E+00
 -14.700  0.0000E+00  0.0000E+00
 -14.690  0.0000E+00  0.0000E+00
 -14.680  0.0000E+00  0.0000E+00
 -14.670  0.0000E+00  0.0000E+00
 -14.660  0.0000E+00  0.0000E+00
 -14.650  0.0000E+00  0.0000E+00
 -14.640  0.0000E+00  0.0000E+00
 -14.630  0.0000E+00  0.0000E+00
 -14.620  0.0000E+00  0.0000E+00
 -14.610  0.0000E+00  0.0000E+00
 -14.600  0.0000E+00  0.0000E+00
 -14.590  0.0000E+00  0.0000E+00
 -14.580  0.0000E+00  0.0000E+00
 -14.570  0.0000E+00  0.0000E+00
 -14.560  0.0000E+00  0.0000E+00
 -14.550  0.0000E+00  0.0000E+00
 -14.540  0.0000E+00  0.0000E+00
 -14.530  0.0000E+00  0.0000E+00
 -14.520  0.0000E+00  0.0000E+00
 -14.510  0.0000E+00  0.0000E+00
 -14.500  0.0000E+00  0.0000E+00
 -14.490  0.0000E+00  0.0000E+00
 -14.480  0.0000E+00  0.0000E+00
 -14.470  0.0000E+00  0.0000E+00
 -14.460  0.0000E+00  0.0000E+00
 -14.450  0.0000E+00  0.0000E+00
 -14.440  0.0000E+00  0.0000E+00
 -14.430  0.0000E+00  0.0000E+00
 -14.420  0.0000E+00  0.0000E+00
 -14.410  0.0000E+00  0.0000E+00
 -14.400  0.0000E+00  0.0000E+00
 -14.390  0.0000E+00  0.0000E+00
 -14.380  0.0000E+00  0.0000E+00
 -14.370  0.0000E+00  0.0000E+00
 -14.360  0.0000E+00  0.0000E+00
 -14.350  0.0000E+00  0.0000E+00
 -14.340  0.0000E+00  0.0000E+00
 -14.330  0.0000E+00  0.0000E+00
 -14.320  0.0000E+00  0.0000E+00
 -14.310  0.0000E+00  0.0000E+00
 -14.300  0.0000E+00  0.0000E+00
 -14.290  0.0000E+00  0.0000E+00
 -14.280  0.0000E+00  0.0000E+00
 -14.270  0.0000E+00  0.0000E+00
 -14.260  0.0000E+00  0.0000E+00
 -14.250  0.0000E+00  0.0000E+00
 -14.240  0.0000E+00  0.0000E+00
 -14.230  0.0000E+00  0.0000E+00
 -14.220  0.0000E+00  0.0000E+00
 -14.210  0.0000E+00  0.0000E+00
 -14.200  0.0000E+00  0.0000E+00
 -14.190  0.0000E+00  0.0000E+00
 -14.180  0.0000E+00  0.0000E+00
 -14.170  0.0000E+00  0.0000E+00
 -14.160  0.0000E+00  0.0000E+00
 -14.150  0.0000E+00  0.0000E+00
 -14.140  0.0000E+00  0.0000E+00
 -14.130  0.0000E+00  0.0000E+00
 -14.120  0.0000E+00  0.0000E+00
 -14.110  0.0000E+00  0.0000E+00
 -14.100  0.0000E+00  0.0000E+00
 -14.090  0.0000E+00  0.0000E+00
 -14.080  0.0000E+00  0.0000E+00
 -14.070  0.0000E+00  0.0000E+00
 -14.060  0.0000E+00  0.0000E+00
 -14.050  0.0000E+00  0.0000E+00
 -14.040  0.0000E+00  0.0000E+00
 -14.030  0.0000E+00  0.0000E+00
 -14.020  0.0000E+00  0.0000E+00
 -14.010  0.0000E+00  0.0000E+00
 -14.000  0.0000E+00  0.0000E+00
 -13.990  0.0000E+00  0.0000E+00
 -13.980  0.0000E+00  0.0000E+00
 -13.970  0.0000E+00  0.0000E+00
 -13.960  0.0000E+00  0.0000E+00
 -13.950  0.0000E+00  0.0000E+00
 -13.940  0.0000E+00  0.0000E+00
 -13.930  0.0000E+00  0.0000E+00
 -13.920  0.0000E+00  0.0000E+00
 -13.910  0.0000E+00  0.0000E+00
 -13.900  0.0000E+00  0.0000E+00
 -13.890  0.0000E+00  0.0000E+00
 -13.880  0.0000E+00  0.0000E+00
 -13.870  0.0000E+00  0.0000E+00
 -13.860  0.0000E+00  0.0000E+00
 -13.850  0.0000E+00  0.0000E+00
 -13.840  0.0000E+00  0.0000E+00
 -13.830  0.0000E+00  0.0000E+00
 -13.820  0.0000E+00  0.0000E+00
 -13.810  0.0000E+00  0.0000E+00
 -13.800  0.0000E+00  0.0000E+00
 -13.790  0.0000E+00  0.0000E+00
 -13.780  0.0000E+00  0.0000E+00
 -13.770  0.0000E+00  0.0000E+00
 -13.760  0.0000E+00  0.0000E+00
 -13.750  0.0000E+00  0.0000E+00
 -13.740  0.0000E+00  0.0000E+00
 -13.730  0.0000E+00  0.0000E+00
 -13.720  0.0000E+00  0.0000E+00
 -13.710  0.0000E+00  0.0000E+00
 -13.700  0.0000E+00  0.0000E+00
 -13.690  0.0000E+00  0.0000E+00
 -13.680  0.0000E+00  0.0000E+00
 -13.670  0.0000E+00  0.0000E+00
 -13.660  0.0000E+00  0.0000E+00
 -13.650  0.0000E+00  0.0000E+00
 -13.640  0.0000E+00  0.0000E+00
 -13.630  0.0000E+00  0.0000E+00
 -13.620  0.0000E+00  0.0000E+00
 -13.610  0.0000E+00  0.0000E+00
 -13.600  0.0000E+00  0.0000E+00
 -13.590  0.0000E+00  0.0000E+00
 -13.580  0.0000E+00  0.0000E+00
 -13.570  0.0000E+00  0.0000E+00
 -13.560  0.0000E+00  0.0000E+00
 -13.550  0.0000E+00  0.0000E+00
 -13.540  0.0000E+00  0.0000E+00
 -13.530  0.0000E+00  0.0000E+00
 -13.520  0.0000E+00  0.0000E+00
 -13.510  0.0000E+00  0.0000E+00
 -13.500  0.0000E+00  0.0000E+00
 -13.490  0.0000E+00  0.0000E+00
 -13.480  0.0000E+00  0.0000E+00
 -13.470  0.0000E+00  0.0000E+00
 -13.460  0.0000E+00  0.0000E+00
 -13.450  0.0000E+00  0.0000E+00
 -13.440  0.0000E+00  0.0000E+00
 -13.430  0.0000E+00  0.0000E+00
 -13.420  0.0000E+00  0.0000E+00
 -13.410  0.0000E+00  0.0000E+00
 -13.400  0.0000E+00  0.0000E+00
 -13.390  0.0000E+00  0.0000E+00
 -13.380  0.0000E+00  0.0000E+00
 -13.370  0.0000E+00  0.0000E+00
 -13.360  0.0000E+00  0.0000E+00
 -13.350  0.0000E+00  0.0000E+00
 -13.340  0.0000E+00  0.0000E+00
 -13.330  0.0000E+00  0.0000E+00
 -13.320  0.0000E+00  0.0000E+00
 -13.310  0.0000E+00  0.0000E+00
 -13.300  0.0000E+00  0.0000E+00
 -13.290  0.0000E+00  0.0000E+00
 -13.280  0.0000E+00  0.0000E+00
 -13.270  0.0000E+00  0.0000E+00
 -13.260  0.0000E+00  0.0000E+00
 -13.250  0.0000E+00  0.0000E+00
 -13.240  0.0000E+00  0.0000E+00
 -13.230  0.0000E+00  0.0000E+00
 -13.220  0.0000E+00  0.0000E+00
 -13.210  0.0000E+00  0.0000E+00
 -13.200  0.0000E+00  0.0000E+00
 -13.190  0.0000E+00  0.0000E+00
 -13.180  0.0000E+00  0.0000E+00
 -13.170  0.0000E+00  0.0000E+00
 -13.160  0.0000E+00  0.0000E+00
 -13.150  0.0000E+00  0.0000E+00
 -13.140  0.0000E+00  0.0000E+00
 -13.130  0.0000E+00  0.0000E+00
 -13.120  0.0000E+00  0.0000E+00
 -13.110  0.0000E+00  0.0000E+00
 -13.100  0.0000E+00  0.0000E+00
 -13.090  0.0000E+00  0.0000E+00
 -13.080  0.0000E+00  0.0000E+00
 -13.070  0.0000E+00  0.0000E+00
 -13.060  0.0000E+00  0.0000E+00
 -13.050  0.0000E+00  0.0000E+00
 -13.040  0.0000E+00  0.0000E+00
 -13.030  0.0000E+00  0.0000E+00
 -13.020  0.0000E+00  0.0000E+00
 -13.010  0.0000E+00  0.0000E+00
 -13.000  0.0000E+00  0.0000E+00
 -12.990  0.0000E+00  0.0000E+00
 -12.980  0.0000E+00  0.0000E+00
 -12.970  0.0000E+00  0.0000E+00
 -12.960  0.0000E+00  0.0000E+00
 -12.950  0.0000E+00  0.0000E+00
 -12.940  0.0000E+00  0.0000E+00
 -12.930  0.0000E+00  0.0000E+00
 -12.920  0.0000E+00  0.0000E+00
 -12.910  0.0000E+00  0.0000E+00
 -12.900  0.0000E+00  0.0000E+00
 -12.890  0.0000E+00  0.0000E+00
 -12.880  0.0000E+00  0.0000E+00
 -12.870  0.0000E+00  0.0000E+00
 -12.860  0.0000E+00  0.0000E+00
 -12.850  0.0000E+00  0.0000E+00
 -12.840  0.0000E+00  0.0000E+00
 -12.830  0.0000E+00  0.0000E+00
 -12.820  0.0000E+00  0.0000E+00
 -12.810  0.0000E+00  0.0000E+00
 -12.800  0.0000E+00  0.0000E+00
 -12.790  0.0000E+00  0.0000E+00
 -12.780  0.0000E+00  0.0000E+00
 -12.770  0.0000E+00  0.0000E+00
 -12.760  0.0000E+00  0.0000E+00
 -12.750  0.0000E+00  0.0000E+00
 -12.740  0.0000E+00  0.0000E+00
 -12.730  0.0000E+00  0.0000E+00
 -12.720  0.0000E+00  0.0000E+00
 -12.710  0.0000E+00  0.0000E+00
 -12.700  0.0000E+00  0.0000E+00
 -12.690  0.0000E+00  0.0000E+00
 -12.680  0.0000E+00  0.0000E+00
 -12.670  0.0000E+00  0.0000E+00
 -12.660  0.0000E+00  0.0000E+00
 -12.650  0.0000E+00  0.0000E+00
 -12.640  0.0000E+00  0.0000E+00
 -12.630  0.0000E+00  0.0000E+00
 -12.620  0.0000E+00  0.0000E+00
 -12.610  0.0000E+00  0.0000E+00
 -12.600  0.0000E+00  0.0000E+00
 -12.590  0.0000E+00  0.0000E+00
 -12.580  0.0000E+00  0.0000E+00
 -12.570  0.0000E+00  0.0000E+00
 -12.560  0.0000E+00  0.0000E+00
 -12.550  0.0000E+00  0.0000E+00
 -12.540  0.0000E+00  0.0000E+00
 -12.530  0.0000E+00  0.0000E+00
 -12.520  0.0000E+00  0.0000E+00
 -12.510  0.0000E+00  0.0000E+00
 -12.500  0.0000E+00  0.0000E+00
 -12.490  0.0000E+00  0.0000E+00
 -12.480  0.0000E+00  0.0000E+00
 -12.470  0.0000E+00  0.0000E+00
 -12.460  0.0000E+00  0.0000E+00
 -12.450  0.0000E+00  0.0000E+00
 -12.440  0.0000E+00  0.0000E+00
 -12.430  0.0000E+00  0.0000E+00
 -12.420  0.0000E+00  0.0000E+00
 -12.410  0.0000E+00  0.0000E+00
 -12.400  0.0000E+00  0.0000E+00
 -12.390  0.0000E+00  0.0000E+00
 -12.380  0.0000E+00  0.0000E+00
 -12.370  0.0000E+00  0.0000E+00
 -12.360  0.0000E+00  0.0000E+00
 -12.350  0.0000E+00  0.0000E+00
 -12.340  0.0000E+00  0.0000E+00
 -12.330  0.0000E+00  0.0000E+00
 -12.320  0.0000E+00  0.0000E+00
 -12.310  0.0000E+00  0.0000E+00
 -12.300  0.0000E+00  0.0000E+00
 -12.290  0.0000E+00  0.0000E+00
 -12.280  0.0000E+00  0.0000E+00
 -12.270  0.0000E+00  0.0000E+00
 -12.260  0.0000E+00  0.0000E+00
 -12.250  0.0000E+00  0.0000E+00
 -12.240  0.0000E+00  0.0000E+00
 -12.230  0.0000E+00  0.0000E+00
 -12.220  0.0000E+00  0.0000E+00
 -12.210  0.0000E+00  0.0000E+00
 -12.200  0.0000E+00  0.0000E+00
 -12.190  0.0000E+00  0.0000E+00
 -12.180  0.0000E+00  0.0000E+00
 -12.170  0.0000E+00  0.0000E+00
 -12.160  0.0000E+00  0.0000E+00
 -12.150  0.0000E+00  0.0000E+00
 -12.140  0.0000E+00  0.0000E+00
 -12.130  0.0000E+00  0.0000E+00
 -12.120  0.0000E+00  0.0000E+00
 -12.110  0.0000E+00  0.0000E+00
 -12.100  0.0000E+00  0.0000E+00
 -12.090  0.0000E+00  0.0000E+00
 -12.080  0.0000E+00  0.0000E+00
 -12.070  0.0000E+00  0.0000E+00
 -12.060  0.0000E+00  0.0000E+00
 -12.050  0.0000E+00  0.0000E+00
 -12.040  0.0000E+00  0.0000E+00
 -12.030  0.0000E+00  0.0000E+00
 -12.020  0.0000E+00  0.0000E+00
 -12.010  0.0000E+00  0.0000E+00
 -12.000  0.0000E+00  0.0000E+00
 -11.990  0.0000E+00  0.0000E+00
 -11.980  0.0000E+00  0.0000E+00
 -11.970  0.0000E+00  0.0000E+00
 -11.960  0.0000E+00  0.0000E+00
 -11.950  0.0000E+00  0.0000E+00
 -11.940  0.0000E+00  0.0000E+00
 -11.930  0.0000E+00  0.0000E+00
 -11.920  0.0000E+00  0.0000E+00
 -11.910  0.0000E+00  0.0000E+00
 -11.900  0.0000E+00  0.0000E+00
 -11.890  0.0000E+00  0.0000E+00
 -11.880  0.0000E+00  0.0000E+00
 -11.870  0.0000E+00  0.0000E+00
 -11.860  0.0000E+00  0.0000E+00
 -11.850  0.0000E+00  0.0000E+00
 -11.840  0.0000E+00  0.0000E+00
 -11.830  0.0000E+00  0.0000E+00
 -11.820  0.0000E+00  0.0000E+00
 -11.810  0.0000E+00  0.0000E+00
 -11.800  0.0000E+00  0.0000E+00
 -11.790  0.0000E+00  0.0000E+00
 -11.780  0.0000E+00  0.0000E+00
 -11.770  0.0000E+00  0.0000E+00
 -11.760  0.0000E+00  0.0000E+00
 -11.750  0.0000E+00  0.0000E+00
 -11.740  0.0000E+00  0.0000E+00
 -11.730  0.0000E+00  0.0000E+00
 -11.720  0.0000E+00  0.0000E+00
 -11.710  0.0000E+00  0.0000E+00
 -11.700  0.0000E+00  0.0000E+00
 -11.690  0.0000E+00  0.0000E+00
 -11.680  0.0000E+00  0.0000E+00
 -11.670  0.0000E+00  0.0000E+00
 -11.660  0.0000E+00  0.0000E+00
 -11.650  0.0000E+00  0.0000E+00
 -11.640  0.0000E+00  0.0000E+00
 -11.630  0.0000E+00  0.0000E+00
 -11.620  0.0000E+00  0.0000E+00
 -11.610  0.0000E+00  0.0000E+00
 -11.600  0.0000E+00  0.0000E+00
 -11.590  0.0000E+00  0.0000E+00
 -11.580  0.0000E+00  0.0000E+00
 -11.570  0.0000E+00  0.0000E+00
 -11.560  0.0000E+00  0.0000E+00
 -11.550  0.0000E+00  0.0000E+00
 -11.540  0.0000E+00  0.0000E+00
 -11.530  0.0000E+00  0.0000E+00
 -11.520  0.0000E+00  0.0000E+00
 -11.510  0.0000E+00  0.0000E+00
 -11.500  0.0000E+00  0.0000E+00
 -11.490  0.0000E+00  0.0000E+00
 -11.480  0.0000E+00  0.0000E+00
 -11.470  0.0000E+00  0.0000E+00
 -11.460  0.0000E+00  0.0000E+00
 -11.450  0.0000E+00  0.0000E+00
 -11.440  0.0000E+00  0.0000E+00
 -11.430  0.0000E+00  0.0000E+00
 -11.420  0.0000E+00  0.0000E+00
 -11.410  0.0000E+00  0.0000E+00
 -11.400  0.0000E+00  0.0000E+00
 -11.390  0.0000E+00  0.0000E+00
 -11.380  0.0000E+00  0.0000E+00
 -11.370  0.0000E+00  0.0000E+00
 -11.360  0.0000E+00  0.0000E+00
 -11.350  0.0000E+00  0.0000E+00
 -11.340  0.0000E+00  0.0000E+00
 -11.330  0.0000E+00  0.0000E+00
 -11.320  0.0000E+00  0.0000E+00
 -11.310  0.0000E+00  0.0000E+00
 -11.300  0.0000E+00  0.0000E+00
 -11.290  0.0000E+00  0.0000E+00
 -11.280  0.0000E+00  0.0000E+00
 -11.270  0.0000E+00  0.0000E+00
 -11.260  0.0000E+00  0.0000E+00
 -11.250  0.0000E+00  0.0000E+00
 -11.240  0.0000E+00  0.0000E+00
 -11.230  0.0000E+00  0.0000E+00
 -11.220  0.0000E+00  0.0000E+00
 -11.210  0.0000E+00  0.0000E+00
 -11.200  0.0000E+00  0.0000E+00
 -11.190  0.0000E+00  0.0000E+00
 -11.180  0.0000E+00  0.0000E+00
 -11.170  0.0000E+00  0.0000E+00
 -11.160  0.0000E+00  0.0000E+00
 -11.150  0.0000E+00  0.0000E+00
 -11.140  0.0000E+00  0.0000E+00
 -11.130  0.0000E+00  0.0000E+00
 -11.120  0.0000E+00  0.0000E+00
 -11.110  0.0000E+00  0.0000E+00
 -11.100  0.0000E+00  0.0000E+00
 -11.090  0.0000E+00  0.0000E+00
 -11.080  0.0000E+00  0.0000E+00
 -11.070  0.0000E+00  0.0000E+00
 -11.060  0.0000E+00  0.0000E+00
 -11.050  0.0000E+00  0.0000E+00
 -11.040  0.0000E+00  0.0000E+00
 -11.030  0.0000E+00  0.0000E+00
 -11.020  0.0000E+00  0.0000E+00
 -11.010  0.0000E+00  0.0000E+00
 -11.000  0.0000E+00  0.0000E+00
 -10.990  0.0000E+00  0.0000E+00
 -10.980  0.0000E+00  0.0000E+00
 -10.970  0.0000E+00  0.0000E+00
 -10.960  0.0000E+00  0.0000E+00
 -10.950  0.0000E+00  0.0000E+00
 -10.940  0.0000E+00  0.0000E+00
 -10.930  0.0000E+00  0.0000E+00
 -10.920  0.0000E+00  0.0000E+00
 -10.910  0.0000E+00  0.0000E+00
 -10.900  0.0000E+00  0.0000E+00
 -10.890  0.0000E+00  0.0000E+00
 -10.880  0.0000E+00  0.0000E+00
 -10.870  0.0000E+00  0.0000E+00
 -10.860  0.0000E+00  0.0000E+00
 -10.850  0.0000E+00  0.0000E+00
 -10.840  0.0000E+00  0.0000E+00
 -10.830  0.0000E+00  0.0000E+00
 -10.820  0.0000E+00  0.0000E+00
 -10.810  0.0000E+00  0.0000E+00
 -10.800  0.0000E+00  0.0000E+00
 -10.790  0.0000E+00  0.0000E+00
 -10.780  0.0000E+00  0.0000E+00
 -10.770  0.0000E+00  0.0000E+00
 -10.760  0.0000E+00  0.0000E+00
 -10.750  0.0000E+00  0.0000E+00
 -10.740  0.0000E+00  0.0000E+00
 -10.730  0.0000E+00  0.0000E+00
 -10.720  0.0000E+00  0.0000E+00
 -10.710  0.0000E+00  0.0000E+00
 -10.700  0.0000E+00  0.0000E+00
 -10.690  0.0000E+00  0.0000E+00
 -10.680  0.0000E+00  0.0000E+00
 -10.670  0.0000E+00  0.0000E+00
 -10.660  0.0000E+00  0.0000E+00
 -10.650  0.0000E+00  0.0000E+00
 -10.640  0.0000E+00  0.0000E+00
 -10.630  0.0000E+00  0.0000E+00
 -10.620  0.0000E+00  0.0000E+00
 -10.610  0.0000E+00  0.0000E+00
 -10.600  0.0000E+00  0.0000E+00
 -10.590  0.0000E+00  0.0000E+00
 -10.580  0.0000E+00  0.0000E+00
 -10.570  0.0000E+00  0.0000E+00
 -10.560  0.0000E+00  0.0000E+00
 -10.550  0.0000E+00  0.0000E+00
 -10.540  0.0000E+00  0.0000E+00
 -10.530  0.0000E+00  0.0000E+00
 -10.520  0.0000E+00  0.0000E+00
 -10.510  0.0000E+00  0.0000E+00
 -10.500  0.0000E+00  0.0000E+00
 -10.490  0.0000E+00  0.0000E+00
 -10.480  0.0000E+00  0.0000E+00
 -10.470  0.0000E+00  0.0000E+00
 -10.460  0.0000E+00  0.0000E+00
 -10.450  0.0000E+00  0.0000E+00
 -10.440  0.0000E+00  0.0000E+00
 -10.430  0.0000E+00  0.0000E+00
 -10.420  0.0000E+00  0.0000E+00
 -10.410  0.0000E+00  0.0000E+00
 -10.400  0.0000E+00  0.0000E+00
 -10.390  0.0000E+00  0.0000E+00
 -10.380  0.0000E+00  0.0000E+00
 -10.370  0.0000E+00  0.0000E+00
 -10.360  0.0000E+00  0.0000E+00
 -10.350  0.0000E+00  0.0000E+00
 -10.340  0.0000E+00  0.0000E+00
 -10.330  0.0000E+00  0.0000E+00
 -10.320  0.0000E+00  0.0000E+00
 -10.310  0.0000E+00  0.0000E+00
 -10.300  0.0000E+00  0.0000E+00
 -10.290  0.0000E+00  0.0000E+00
 -10.280  0.0000E+00  0.0000E+00
 -10.270  0.0000E+00  0.0000E+00
 -10.260  0.0000E+00  0.0000E+00
 -10.250  0.0000E+00  0.0000E+00
 -10.240  0.0000E+00  0.0000E+00
 -10.230  0.0000E+00  0.0000E+00
 -10.220  0.0000E+00  0.0000E+00
 -10.210  0.0000E+00  0.0000E+00
 -10.200  0.0000E+00  0.0000E+00
 -10.190  0.0000E+00  0.0000E+00
 -10.180  0.0000E+00  0.0000E+00
 -10.170  0.0000E+00  0.0000E+00
 -10.160  0.0000E+00  0.0000E+00
 -10.150  0.0000E+00  0.0000E+00
 -10.140  0.0000E+00  0.0000E+00
 -10.130  0.0000E+00  0.0000E+00
 -10.120  0.0000E+00  0.0000E+00
 -10.110  0.0000E+00  0.0000E+00
 -10.100  0.0000E+00  0.0000E+00
 -10.090  0.0000E+00  0.0000E+00
 -10.080  0.0000E+00  0.0000E+00
 -10.070  0.0000E+00  0.0000E+00
 -10.060  0.0000E+00  0.0000E+00
 -10.050  0.0000E+00  0.0000E+00
 -10.040  0.0000E+00  0.0000E+00
 -10.030  0.0000E+00  0.0000E+00
 -10.020  0.0000E+00  0.0000E+00
 -10.010  0.0000E+00  0.0000E+00
 -10.000  0.0000E+00  0.0000E+00
  -9.990  0.0000E+00  0.0000E+00
  -9.980  0.0000E+00  0.0000E+00
  -9.970  0.0000E+00  0.0000E+00
  -9.960  0.0000E+00  0.0000E+00
  -9.950  0.0000E+00  0.0000E+00
  -9.940  0.0000E+00  0.0000E+00
  -9.930  0.0000E+00  0.0000E+00
  -9.920  0.0000E+00  0.0000E+00
  -9.910  0.0000E+00  0.0000E+00
  -9.900  0.0000E+00  0.0000E+00
  -9.890  0.0000E+00  0.0000E+00
  -9.880  0.0000E+00  0.0000E+00
  -9.870  0.0000E+00  0.0000E+00
  -9.860  0.0000E+00  0.0000E+00
  -9.850  0.0000E+00  0.0000E+00
  -9.840  0.0000E+00  0.0000E+00
  -9.830  0.0000E+00  0.0000E+00
  -9.820  0.0000E+00  0.0000E+00
  -9.810  0.0000E+00  0.0000E+00
  -9.800  0.0000E+00  0.0000E+00
  -9.790  0.0000E+00  0.0000E+00
  -9.780  0.0000E+00  0.0000E+00
  -9.770  0.0000E+00  0.0000E+00
  -9.760  0.0000E+00  0.0000E+00
  -9.750  0.0000E+00  0.0000E+00
  -9.740  0.0000E+00  0.0000E+00
  -9.730  0.0000E+00  0.0000E+00
  -9.720  0.0000E+00  0.0000E+00
  -9.710  0.0000E+00  0.0000E+00
  -9.700  0.0000E+00  0.0000E+00
  -9.690  0.0000E+00  0.0000E+00
  -9.680  0.0000E+00  0.0000E+00
  -9.670  0.0000E+00  0.0000E+00
  -9.660  0.0000E+00  0.0000E+00
  -9.650  0.0000E+00  0.0000E+00
  -9.640  0.0000E+00  0.0000E+00
  -9.630  0.0000E+00  0.0000E+00
  -9.620  0.0000E+00  0.0000E+00
  -9.610  0.0000E+00  0.0000E+00
  -9.600  0.0000E+00  0.0000E+00
  -9.590  0.0000E+00  0.0000E+00
  -9.580  0.0000E+00  0.0000E+00
  -9.570  0.0000E+00  0.0000E+00
  -9.560  0.0000E+00  0.0000E+00
  -9.550  0.0000E+00  0.0000E+00
  -9.540  0.0000E+00  0.0000E+00
  -9.530  0.0000E+00  0.0000E+00
  -9.520  0.0000E+00  0.0000E+00
  -9.510  0.0000E+00  0.0000E+00
  -9.500  0.0000E+00  0.0000E+00
  -9.490  0.0000E+00  0.0000E+00
  -9.480  0.0000E+00  0.0000E+00
  -9.470  0.0000E+00  0.0000E+00
  -9.460  0.0000E+00  0.0000E+00
  -9.450  0.0000E+00  0.0000E+00
  -9.440  0.0000E+00  0.0000E+00
  -9.430  0.0000E+00  0.0000E+00
  -9.420  0.0000E+00  0.0000E+00
  -9.410  0.0000E+00  0.0000E+00
  -9.400  0.0000E+00  0.0000E+00
  -9.390  0.0000E+00  0.0000E+00
  -9.380  0.0000E+00  0.0000E+00
  -9.370  0.0000E+00  0.0000E+00
  -9.360  0.0000E+00  0.0000E+00
  -9.350  0.0000E+00  0.0000E+00
  -9.340  0.0000E+00  0.0000E+00
  -9.330  0.0000E+00  0.0000E+00
  -9.320  0.0000E+00  0.0000E+00
  -9.310  0.0000E+00  0.0000E+00
  -9.300  0.0000E+00  0.0000E+00
  -9.290  0.0000E+00  0.0000E+00
  -9.280  0.0000E+00  0.0000E+00
  -9.270  0.0000E+00  0.0000E+00
  -9.260  0.0000E+00  0.0000E+00
  -9.250  0.0000E+00  0.0000E+00
  -9.240  0.0000E+00  0.0000E+00
  -9.230  0.0000E+00  0.0000E+00
  -9.220  0.0000E+00  0.0000E+00
  -9.210  0.0000E+00  0.0000E+00
  -9.200  0.0000E+00  0.0000E+00
  -9.190  0.0000E+00  0.0000E+00
  -9.180  0.0000E+00  0.0000E+00
  -9.170  0.0000E+00  0.0000E+00
  -9.160  0.0000E+00  0.0000E+00
  -9.150  0.0000E+00  0.0000E+00
  -9.140  0.0000E+00  0.0000E+00
  -9.130  0.0000E+00  0.0000E+00
  -9.120  0.0000E+00  0.0000E+00
  -9.110  0.0000E+00  0.0000E+00
  -9.100  0.0000E+00  0.0000E+00
  -9.090  0.0000E+00  0.0000E+00
  -9.080  0.0000E+00  0.0000E+00
  -9.070  0.0000E+00  0.0000E+00
  -9.060  0.0000E+00  0.0000E+00
  -9.050  0.0000E+00  0.0000E+00
  -9.040  0.0000E+00  0.0000E+00
  -9.030  0.0000E+00  0.0000E+00
  -9.020  0.0000E+00  0.0000E+00
  -9.010  0.0000E+00  0.0000E+00
  -9.000  0.0000E+00  0.0000E+00
  -8.990  0.0000E+00  0.0000E+00
  -8.980  0.0000E+00  0.0000E+00
  -8.970  0.0000E+00  0.0000E+00
  -8.960  0.0000E+00  0.0000E+00
  -8.950  0.0000E+00  0.0000E+00
  -8.940  0.0000E+00  0.0000E+00
  -8.930  0.0000E+00  0.0000E+00
  -8.920  0.0000E+00  0.0000E+00
  -8.910  0.0000E+00  0.0000E+00
  -8.900  0.0000E+00  0.0000E+00
  -8.890  0.0000E+00  0.0000E+00
  -8.880  0.0000E+00  0.0000E+00
  -8.870  0.0000E+00  0.0000E+00
  -8.860  0.0000E+00  0.0000E+00
  -8.850  0.0000E+00  0.0000E+00
  -8.840  0.0000E+00  0.0000E+00
  -8.830  0.0000E+00  0.0000E+00
  -8.820  0.0000E+00  0.0000E+00
  -8.810  0.0000E+00  0.0000E+00
  -8.800  0.0000E+00  0.0000E+00
  -8.790  0.0000E+00  0.0000E+00
  -8.780  0.0000E+00  0.0000E+00
  -8.770  0.0000E+00  0.0000E+00
  -8.760  0.0000E+00  0.0000E+00
  -8.750  0.0000E+00  0.0000E+00
  -8.740  0.0000E+00  0.0000E+00
  -8.730  0.0000E+00  0.0000E+00
  -8.720  0.0000E+00  0.0000E+00
  -8.710  0.0000E+00  0.0000E+00
  -8.700  0.0000E+00  0.0000E+00
  -8.690  0.0000E+00  0.0000E+00
  -8.680  0.0000E+00  0.0000E+00
  -8.670  0.0000E+00  0.0000E+00
  -8.660  0.0000E+00  0.0000E+00
  -8.650  0.0000E+00  0.0000E+00
  -8.640  0.0000E+00  0.0000E+00
  -8.630  0.0000E+00  0.0000E+00
  -8.620  0.0000E+00  0.0000E+00
  -8.610  0.0000E+00  0.0000E+00
  -8.600  0.0000E+00  0.0000E+00
  -8.590  0.0000E+00  0.0000E+00
  -8.580  0.0000E+00  0.0000E+00
  -8.570  0.1318E+00  0.3903E-03
  -8.560  0.4095E+00  0.2820E-02
  -8.550  0.5387E+00  0.8090E-02
  -8.540  0.5305E+00  0.1359E-01
  -8.530  0.5582E+00  0.1908E-01
  -8.520  0.5365E+00  0.2452E-01
  -8.510  0.7828E+00  0.3141E-01
  -8.500  0.8898E+00  0.4007E-01
  -8.490  0.9984E+00  0.4936E-01
  -8.480  0.1111E+01  0.6002E-01
  -8.470  0.1112E+01  0.7109E-01
  -8.460  0.1111E+01  0.8213E-01
  -8.450  0.1102E+01  0.9315E-01
  -8.440  0.1111E+01  0.1042E+00
  -8.430  0.1132E+01  0.1154E+00
  -8.420  0.1099E+01  0.1266E+00
  -8.410  0.1107E+01  0.1376E+00
  -8.400  0.1120E+01  0.1487E+00
  -8.390  0.1131E+01  0.1600E+00
  -8.380  0.1183E+01  0.1715E+00
  -8.370  0.1271E+01  0.1837E+00
  -8.360  0.1366E+01  0.1969E+00
  -8.350  0.1476E+01  0.2111E+00
  -8.340  0.1682E+01  0.2275E+00
  -8.330  0.1668E+01  0.2445E+00
  -8.320  0.1695E+01  0.2614E+00
  -8.310  0.1675E+01  0.2782E+00
  -8.300  0.1697E+01  0.2950E+00
  -8.290  0.2036E+01  0.3142E+00
  -8.280  0.2224E+01  0.3358E+00
  -8.270  0.2290E+01  0.3584E+00
  -8.260  0.2272E+01  0.3812E+00
  -8.250  0.2258E+01  0.4038E+00
  -8.240  0.2276E+01  0.4266E+00
  -8.230  0.2289E+01  0.4494E+00
  -8.220  0.2293E+01  0.4723E+00
  -8.210  0.2307E+01  0.4953E+00
  -8.200  0.2300E+01  0.5183E+00
  -8.190  0.2286E+01  0.5412E+00
  -8.180  0.2297E+01  0.5641E+00
  -8.170  0.2316E+01  0.5872E+00
  -8.160  0.2319E+01  0.6104E+00
  -8.150  0.2314E+01  0.6335E+00
  -8.140  0.2327E+01  0.6567E+00
  -8.130  0.2338E+01  0.6801E+00
  -8.120  0.2330E+01  0.7034E+00
  -8.110  0.2324E+01  0.7267E+00
  -8.100  0.2327E+01  0.7499E+00
  -8.090  0.2344E+01  0.7733E+00
  -8.080  0.2362E+01  0.7968E+00
  -8.070  0.2367E+01  0.8205E+00
  -8.060  0.2361E+01  0.8441E+00
  -8.050  0.2351E+01  0.8677E+00
  -8.040  0.2354E+01  0.8912E+00
  -8.030  0.2370E+01  0.9148E+00
  -8.020  0.2388E+01  0.9386E+00
  -8.010  0.2393E+01  0.9625E+00
  -8.000  0.2388E+01  0.9864E+00
  -7.990  0.2385E+01  0.1010E+01
  -7.980  0.2394E+01  0.1034E+01
  -7.970  0.2403E+01  0.1058E+01
  -7.960  0.2410E+01  0.1082E+01
  -7.950  0.2418E+01  0.1106E+01
  -7.940  0.2422E+01  0.1131E+01
  -7.930  0.2424E+01  0.1155E+01
  -7.920  0.2424E+01  0.1179E+01
  -7.910  0.2430E+01  0.1203E+01
  -7.900  0.2439E+01  0.1228E+01
  -7.890  0.2451E+01  0.1252E+01
  -7.880  0.2463E+01  0.1277E+01
  -7.870  0.2462E+01  0.1301E+01
  -7.860  0.2462E+01  0.1326E+01
  -7.850  0.2464E+01  0.1351E+01
  -7.840  0.2469E+01  0.1375E+01
  -7.830  0.2480E+01  0.1400E+01
  -7.820  0.2491E+01  0.1425E+01
  -7.810  0.2502E+01  0.1450E+01
  -7.800  0.2506E+01  0.1475E+01
  -7.790  0.2510E+01  0.1500E+01
  -7.780  0.2514E+01  0.1525E+01
  -7.770  0.2520E+01  0.1550E+01
  -7.760  0.2523E+01  0.1575E+01
  -7.750  0.2530E+01  0.1601E+01
  -7.740  0.2541E+01  0.1626E+01
  -7.730  0.2553E+01  0.1651E+01
  -7.720  0.2561E+01  0.1677E+01
  -7.710  0.2565E+01  0.1703E+01
  -7.700  0.2571E+01  0.1728E+01
  -7.690  0.2578E+01  0.1754E+01
  -7.680  0.2581E+01  0.1780E+01
  -7.670  0.2587E+01  0.1806E+01
  -7.660  0.2599E+01  0.1832E+01
  -7.650  0.2611E+01  0.1858E+01
  -7.640  0.2622E+01  0.1884E+01
  -7.630  0.2627E+01  0.1910E+01
  -7.620  0.2631E+01  0.1936E+01
  -7.610  0.2639E+01  0.1963E+01
  -7.600  0.2650E+01  0.1989E+01
  -7.590  0.2659E+01  0.2016E+01
  -7.580  0.2665E+01  0.2042E+01
  -7.570  0.2673E+01  0.2069E+01
  -7.560  0.2684E+01  0.2096E+01
  -7.550  0.2697E+01  0.2123E+01
  -7.540  0.2706E+01  0.2150E+01
  -7.530  0.2714E+01  0.2177E+01
  -7.520  0.2721E+01  0.2204E+01
  -7.510  0.2729E+01  0.2231E+01
  -7.500  0.2739E+01  0.2259E+01
  -7.490  0.2751E+01  0.2286E+01
  -7.480  0.2764E+01  0.2314E+01
  -7.470  0.2775E+01  0.2341E+01
  -7.460  0.2785E+01  0.2369E+01
  -7.450  0.2794E+01  0.2397E+01
  -7.440  0.2802E+01  0.2425E+01
  -7.430  0.2816E+01  0.2453E+01
  -7.420  0.2829E+01  0.2481E+01
  -7.410  0.2839E+01  0.2510E+01
  -7.400  0.2847E+01  0.2538E+01
  -7.390  0.2858E+01  0.2567E+01
  -7.380  0.2874E+01  0.2595E+01
  -7.370  0.2890E+01  0.2624E+01
  -7.360  0.2904E+01  0.2653E+01
  -7.350  0.2913E+01  0.2682E+01
  -7.340  0.2923E+01  0.2711E+01
  -7.330  0.2936E+01  0.2741E+01
  -7.320  0.2950E+01  0.2770E+01
  -7.310  0.2967E+01  0.2800E+01
  -7.300  0.2981E+01  0.2829E+01
  -7.290  0.2993E+01  0.2859E+01
  -7.280  0.3007E+01  0.2889E+01
  -7.270  0.3026E+01  0.2919E+01
  -7.260  0.3040E+01  0.2950E+01
  -7.250  0.3057E+01  0.2980E+01
  -7.240  0.3073E+01  0.3011E+01
  -7.230  0.3087E+01  0.3042E+01
  -7.220  0.3102E+01  0.3073E+01
  -7.210  0.3119E+01  0.3104E+01
  -7.200  0.3138E+01  0.3135E+01
  -7.190  0.3158E+01  0.3167E+01
  -7.180  0.3177E+01  0.3198E+01
  -7.170  0.3194E+01  0.3230E+01
  -7.160  0.3212E+01  0.3262E+01
  -7.150  0.3231E+01  0.3294E+01
  -7.140  0.3253E+01  0.3327E+01
  -7.130  0.3276E+01  0.3359E+01
  -7.120  0.3295E+01  0.3392E+01
  -7.110  0.3313E+01  0.3425E+01
  -7.100  0.3335E+01  0.3458E+01
  -7.090  0.3358E+01  0.3492E+01
  -7.080  0.3384E+01  0.3526E+01
  -7.070  0.3411E+01  0.3560E+01
  -7.060  0.3432E+01  0.3594E+01
  -7.050  0.3454E+01  0.3628E+01
  -7.040  0.3482E+01  0.3663E+01
  -7.030  0.3511E+01  0.3698E+01
  -7.020  0.3540E+01  0.3733E+01
  -7.010  0.3567E+01  0.3769E+01
  -7.000  0.3593E+01  0.3805E+01
  -6.990  0.3624E+01  0.3841E+01
  -6.980  0.3656E+01  0.3877E+01
  -6.970  0.3690E+01  0.3914E+01
  -6.960  0.3724E+01  0.3951E+01
  -6.950  0.3753E+01  0.3988E+01
  -6.940  0.3789E+01  0.4026E+01
  -6.930  0.3828E+01  0.4064E+01
  -6.920  0.3868E+01  0.4102E+01
  -6.910  0.3908E+01  0.4141E+01
  -6.900  0.3946E+01  0.4181E+01
  -6.890  0.3986E+01  0.4220E+01
  -6.880  0.4032E+01  0.4260E+01
  -6.870  0.4079E+01  0.4301E+01
  -6.860  0.4129E+01  0.4342E+01
  -6.850  0.4174E+01  0.4384E+01
  -6.840  0.4224E+01  0.4425E+01
  -6.830  0.4282E+01  0.4468E+01
  -6.820  0.4342E+01  0.4511E+01
  -6.810  0.4404E+01  0.4555E+01
  -6.800  0.4461E+01  0.4599E+01
  -6.790  0.4527E+01  0.4644E+01
  -6.780  0.4596E+01  0.4690E+01
  -6.770  0.4677E+01  0.4736E+01
  -6.760  0.4749E+01  0.4783E+01
  -6.750  0.4825E+01  0.4831E+01
  -6.740  0.4918E+01  0.4880E+01
  -6.730  0.5022E+01  0.4929E+01
  -6.720  0.5120E+01  0.4980E+01
  -6.710  0.5221E+01  0.5032E+01
  -6.700  0.5345E+01  0.5085E+01
  -6.690  0.5486E+01  0.5139E+01
  -6.680  0.5612E+01  0.5194E+01
  -6.670  0.5760E+01  0.5251E+01
  -6.660  0.5955E+01  0.5310E+01
  -6.650  0.6151E+01  0.5370E+01
  -6.640  0.6389E+01  0.5433E+01
  -6.630  0.6680E+01  0.5498E+01
  -6.620  0.7088E+01  0.5567E+01
  -6.610  0.7832E+01  0.5641E+01
  -6.600  0.8002E+01  0.5723E+01
  -6.590  0.8095E+01  0.5803E+01
  -6.580  0.8319E+01  0.5887E+01
  -6.570  0.8260E+01  0.5971E+01
  -6.560  0.7820E+01  0.6051E+01
  -6.550  0.7823E+01  0.6129E+01
  -6.540  0.7839E+01  0.6207E+01
  -6.530  0.8139E+01  0.6287E+01
  -6.520  0.8592E+01  0.6371E+01
  -6.510  0.8508E+01  0.6458E+01
  -6.500  0.8387E+01  0.6543E+01
  -6.490  0.8716E+01  0.6629E+01
  -6.480  0.8004E+01  0.6714E+01
  -6.470  0.7261E+01  0.6790E+01
  -6.460  0.6904E+01  0.6861E+01
  -6.450  0.6625E+01  0.6928E+01
  -6.440  0.6331E+01  0.6993E+01
  -6.430  0.6144E+01  0.7055E+01
  -6.420  0.5950E+01  0.7116E+01
  -6.410  0.5740E+01  0.7174E+01
  -6.400  0.5625E+01  0.7231E+01
  -6.390  0.5480E+01  0.7287E+01
  -6.380  0.5376E+01  0.7341E+01
  -6.370  0.5206E+01  0.7394E+01
  -6.360  0.5156E+01  0.7446E+01
  -6.350  0.4982E+01  0.7496E+01
  -6.340  0.4903E+01  0.7546E+01
  -6.330  0.4836E+01  0.7595E+01
  -6.320  0.4697E+01  0.7642E+01
  -6.310  0.4702E+01  0.7689E+01
  -6.300  0.4570E+01  0.7735E+01
  -6.290  0.4513E+01  0.7781E+01
  -6.280  0.4356E+01  0.7826E+01
  -6.270  0.4226E+01  0.7870E+01
  -6.260  0.3782E+01  0.7912E+01
  -6.250  0.2433E+01  0.7940E+01
  -6.240  0.2418E+01  0.7965E+01
  -6.230  0.2373E+01  0.7988E+01
  -6.220  0.0000E+00  0.8000E+01
  -6.210  0.0000E+00  0.8000E+01
  -6.200  0.0000E+00  0.8000E+01
  -6.190  0.0000E+00  0.8000E+01
  -6.180  0.0000E+00  0.8000E+01
  -6.170  0.0000E+00  0.8000E+01
  -6.160  0.0000E+00  0.8000E+01
  -6.150  0.0000E+00  0.8000E+01
  -6.140  0.0000E+00  0.8000E+01
  -6.130  0.0000E+00  0.8000E+01
  -6.120  0.0000E+00  0.8000E+01
  -6.110  0.0000E+00  0.8000E+01
  -6.100  0.0000E+00  0.8000E+01
  -6.090  0.0000E+00  0.8000E+01
  -6.080  0.0000E+00  0.8000E+01
  -6.070  0.0000E+00  0.8000E+01
  -6.060  0.0000E+00  0.8000E+01
  -6.050  0.0000E+00  0.8000E+01
  -6.040  0.0000E+00  0.8000E+01
  -6.030  0.0000E+00  0.8000E+01
  -6.020  0.0000E+00  0.8000E+01
  -6.010  0.0000E+00  0.8000E+01
  -6.000  0.0000E+00  0.8000E+01
  -5.990  0.0000E+00  0.8000E+01
  -5.980  0.0000E+00  0.8000E+01
  -5.970  0.0000E+00  0.8000E+01
  -5.960  0.0000E+00  0.8000E+01
  -5.950  0.0000E+00  0.8000E+01
  -5.940  0.0000E+00  0.8000E+01
  -5.930  0.0000E+00  0.8000E+01
  -5.920  0.0000E+00  0.8000E+01
  -5.910  0.0000E+00  0.8000E+01
  -5.900  0.0000E+00  0.8000E+01
  -5.890  0.0000E+00  0.8000E+01
  -5.880  0.0000E+00  0.8000E+01
  -5.870  0.0000E+00  0.8000E+01
  -5.860  0.0000E+00  0.8000E+01
  -5.850  0.0000E+00  0.8000E+01
  -5.840  0.0000E+00  0.8000E+01
  -5.830  0.0000E+00  0.8000E+01
  -5.820  0.0000E+00  0.8000E+01
  -5.810  0.0000E+00  0.8000E+01
  -5.800  0.0000E+00  0.8000E+01
  -5.790  0.0000E+00  0.8000E+01
  -5.780  0.0000E+00  0.8000E+01
  -5.770  0.0000E+00  0.8000E+01
  -5.760  0.0000E+00  0.8000E+01
  -5.750  0.0000E+00  0.8000E+01
  -5.740  0.0000E+00  0.8000E+01
  -5.730  0.0000E+00  0.8000E+01
  -5.720  0.0000E+00  0.8000E+01
  -5.710  0.0000E+00  0.8000E+01
  -5.700  0.0000E+00  0.8000E+01
  -5.690  0.0000E+00  0.8000E+01
  -5.680  0.0000E+00  0.8000E+01
  -5.670  0.0000E+00  0.8000E+01
  -5.660  0.0000E+00  0.8000E+01
  -5.650  0.0000E+00  0.8000E+01
  -5.640  0.0000E+00  0.8000E+01
  -5.630  0.0000E+00  0.8000E+01
  -5.620  0.0000E+00  0.8000E+01
  -5.610  0.0000E+00  0.8000E+01
  -5.600  0.0000E+00  0.8000E+01
  -5.590  0.0000E+00  0.8000E+01
  -5.580  0.0000E+00  0.8000E+01
  -5.570  0.0000E+00  0.8000E+01
  -5.560  0.0000E+00  0.8000E+01
  -5.550  0.0000E+00  0.8000E+01
  -5.540  0.0000E+00  0.8000E+01
  -5.530  0.0000E+00  0.8000E+01
  -5.520  0.0000E+00  0.8000E+01
  -5.510  0.0000E+00  0.8000E+01
  -5.500  0.0000E+00  0.8000E+01
  -5.490  0.0000E+00  0.8000E+01
  -5.480  0.0000E+00  0.8000E+01
  -5.470  0.0000E+00  0.8000E+01
  -5.460  0.0000E+00  0.8000E+01
  -5.450  0.0000E+00  0.8000E+01
  -5.440  0.0000E+00  0.8000E+01
  -5.430  0.0000E+00  0.8000E+01
  -5.420  0.0000E+00  0.8000E+01
  -5.410  0.0000E+00  0.8000E+01
  -5.400  0.0000E+00  0.8000E+01
  -5.390  0.0000E+00  0.8000E+01
  -5.380  0.0000E+00  0.8000E+01
  -5.370  0.0000E+00  0.8000E+01
  -5.360  0.0000E+00  0.8000E+01
  -5.350  0.0000E+00  0.8000E+01
  -5.340  0.0000E+00  0.8000E+01
  -5.330  0.0000E+00  0.8000E+01
  -5.320  0.0000E+00  0.8000E+01
  -5.310  0.0000E+00  0.8000E+01
  -5.300  0.0000E+00  0.8000E+01
  -5.290  0.0000E+00  0.8000E+01
  -5.280  0.0000E+00  0.8000E+01
  -5.270  0.0000E+00  0.8000E+01
  -5.260  0.0000E+00  0.8000E+01
  -5.250  0.0000E+00  0.8000E+01
  -5.240  0.0000E+00  0.8000E+01
  -5.230  0.0000E+00  0.8000E+01
  -5.220  0.0000E+00  0.8000E+01
  -5.210  0.0000E+00  0.8000E+01
  -5.200  0.0000E+00  0.8000E+01
  -5.190  0.0000E+00  0.8000E+01
  -5.180  0.0000E+00  0.8000E+01
  -5.170  0.0000E+00  0.8000E+01
  -5.160  0.0000E+00  0.8000E+01
  -5.150  0.0000E+00  0.8000E+01
  -5.140  0.0000E+00  0.8000E+01
  -5.130  0.0000E+00  0.8000E+01
  -5.120  0.0000E+00  0.8000E+01
  -5.110  0.0000E+00  0.8000E+01
  -5.100  0.0000E+00  0.8000E+01
  -5.090  0.0000E+00  0.8000E+01
  -5.080  0.0000E+00  0.8000E+01
  -5.070  0.0000E+00  0.8000E+01
  -5.060  0.0000E+00  0.8000E+01
  -5.050  0.0000E+00  0.8000E+01
  -5.040  0.0000E+00  0.8000E+01
  -5.030  0.0000E+00  0.8000E+01
  -5.020  0.0000E+00  0.8000E+01
  -5.010  0.0000E+00  0.8000E+01
  -5.000  0.0000E+00  0.8000E+01
  -4.990  0.0000E+00  0.8000E+01
  -4.980  0.0000E+00  0.8000E+01
  -4.970  0.0000E+00  0.8000E+01
  -4.960  0.0000E+00  0.8000E+01
  -4.950  0.0000E+00  0.8000E+01
  -4.940  0.0000E+00  0.8000E+01
  -4.930  0.0000E+00  0.8000E+01
  -4.920  0.0000E+00  0.8000E+01
  -4.910  0.0000E+00  0.8000E+01
  -4.900  0.0000E+00  0.8000E+01
  -4.890  0.0000E+00  0.8000E+01
  -4.880  0.0000E+00  0.8000E+01
  -4.870  0.0000E+00  0.8000E+01
  -4.860  0.0000E+00  0.8000E+01
  -4.850  0.0000E+00  0.8000E+01
  -4.840  0.0000E+00  0.8000E+01
  -4.830  0.0000E+00  0.8000E+01
  -4.820  0.0000E+00  0.8000E+01
  -4.810  0.0000E+00  0.8000E+01
  -4.800  0.0000E+00  0.8000E+01
  -4.790  0.0000E+00  0.8000E+01
  -4.780  0.0000E+00  0.8000E+01
  -4.770  0.0000E+00  0.8000E+01
  -4.760  0.0000E+00  0.8000E+01
  -4.750  0.0000E+00  0.8000E+01
  -4.740  0.0000E+00  0.8000E+01
  -4.730  0.0000E+00  0.8000E+01
  -4.720  0.0000E+00  0.8000E+01
  -4.710  0.0000E+00  0.8000E+01
  -4.700  0.0000E+00  0.8000E+01
  -4.690  0.0000E+00  0.8000E+01
  -4.680  0.0000E+00  0.8000E+01
  -4.670  0.0000E+00  0.8000E+01
  -4.660  0.0000E+00  0.8000E+01
  -4.650  0.0000E+00  0.8000E+01
  -4.640  0.0000E+00  0.8000E+01
  -4.630  0.0000E+00  0.8000E+01
  -4.620  0.0000E+00  0.8000E+01
  -4.610  0.0000E+00  0.8000E+01
  -4.600  0.0000E+00  0.8000E+01
  -4.590  0.0000E+00  0.8000E+01
  -4.580  0.0000E+00  0.8000E+01
  -4.570  0.0000E+00  0.8000E+01
  -4.560  0.0000E+00  0.8000E+01
  -4.550  0.0000E+00  0.8000E+01
  -4.540  0.0000E+00  0.8000E+01
  -4.530  0.0000E+00  0.8000E+01
  -4.520  0.0000E+00  0.8000E+01
  -4.510  0.0000E+00  0.8000E+01
  -4.500  0.0000E+00  0.8000E+01
  -4.490  0.0000E+00  0.8000E+01
  -4.480  0.0000E+00  0.8000E+01
  -4.470  0.0000E+00  0.8000E+01
  -4.460  0.0000E+00  0.8000E+01
  -4.450  0.0000E+00  0.8000E+01
  -4.440  0.0000E+00  0.8000E+01
  -4.430  0.0000E+00  0.8000E+01
  -4.420  0.0000E+00  0.8000E+01
  -4.410  0.0000E+00  0.8000E+01
  -4.400  0.0000E+00  0.8000E+01
  -4.390  0.0000E+00  0.8000E+01
  -4.380  0.0000E+00  0.8000E+01
  -4.370  0.0000E+00  0.8000E+01
  -4.360  0.0000E+00  0.8000E+01
  -4.350  0.0000E+00  0.8000E+01
  -4.340  0.0000E+00  0.8000E+01
  -4.330  0.0000E+00  0.8000E+01
  -4.320  0.0000E+00  0.8000E+01
  -4.310  0.0000E+00  0.8000E+01
  -4.300  0.0000E+00  0.8000E+01
  -4.290  0.0000E+00  0.8000E+01
  -4.280  0.0000E+00  0.8000E+01
  -4.270  0.0000E+00  0.8000E+01
  -4.260  0.0000E+00  0.8000E+01
  -4.250  0.0000E+00  0.8000E+01
  -4.240  0.0000E+00  0.8000E+01
  -4.230  0.0000E+00  0.8000E+01
  -4.220  0.0000E+00  0.8000E+01
  -4.210  0.0000E+00  0.8000E+01
  -4.200  0.0000E+00  0.8000E+01
  -4.190  0.0000E+00  0.8000E+01
  -4.180  0.0000E+00  0.8000E+01
  -4.170  0.0000E+00  0.8000E+01
  -4.160  0.0000E+00  0.8000E+01
  -4.150  0.0000E+00  0.8000E+01
  -4.140  0.0000E+00  0.8000E+01
  -4.130  0.0000E+00  0.8000E+01
  -4.120  0.0000E+00  0.8000E+01
  -4.110  0.0000E+00  0.8000E+01
  -4.100  0.0000E+00  0.8000E+01
  -4.090  0.0000E+00  0.8000E+01
  -4.080  0.0000E+00  0.8000E+01
  -4.070  0.0000E+00  0.8000E+01
  -4.060  0.0000E+00  0.8000E+01
  -4.050  0.0000E+00  0.8000E+01
  -4.040  0.0000E+00  0.8000E+01
  -4.030  0.0000E+00  0.8000E+01
  -4.020  0.0000E+00  0.8000E+01
  -4.010  0.0000E+00  0.8000E+01
  -4.000  0.0000E+00  0.8000E+01
  -3.990  0.0000E+00  0.8000E+01
  -3.980  0.0000E+00  0.8000E+01
  -3.970  0.0000E+00  0.8000E+01
  -3.960  0.0000E+00  0.8000E+01
  -3.950  0.0000E+00  0.8000E+01
  -3.940  0.0000E+00  0.8000E+01
  -3.930  0.0000E+00  0.8000E+01
  -3.920  0.0000E+00  0.8000E+01
  -3.910  0.0000E+00  0.8000E+01
  -3.900  0.0000E+00  0.8000E+01
  -3.890  0.0000E+00  0.8000E+01
  -3.880  0.0000E+00  0.8000E+01
  -3.870  0.0000E+00  0.8000E+01
  -3.860  0.0000E+00  0.8000E+01
  -3.850  0.0000E+00  0.8000E+01
  -3.840  0.0000E+00  0.8000E+01
  -3.830  0.0000E+00  0.8000E+01
  -3.820  0.0000E+00  0.8000E+01
  -3.810  0.0000E+00  0.8000E+01
  -3.800  0.0000E+00  0.8000E+01
  -3.790  0.0000E+00  0.8000E+01
  -3.780  0.0000E+00  0.8000E+01
  -3.770  0.0000E+00  0.8000E+01
  -3.760  0.0000E+00  0.8000E+01
  -3.750  0.0000E+00  0.8000E+01
  -3.740  0.0000E+00  0.8000E+01
  -3.730  0.0000E+00  0.8000E+01
  -3.720  0.0000E+00  0.8000E+01
  -3.710  0.0000E+00  0.8000E+01
  -3.700  0.0000E+00  0.8000E+01
  -3.690  0.0000E+00  0.8000E+01
  -3.680  0.0000E+00  0.8000E+01
  -3.670  0.0000E+00  0.8000E+01
  -3.660  0.0000E+00  0.8000E+01
  -3.650  0.0000E+00  0.8000E+01
  -3.640  0.0000E+00  0.8000E+01
  -3.630  0.0000E+00  0.8000E+01
  -3.620  0.0000E+00  0.8000E+01
  -3.610  0.0000E+00  0.8000E+01
  -3.600  0.0000E+00  0.8000E+01
  -3.590  0.0000E+00  0.8000E+01
  -3.580  0.0000E+00  0.8000E+01
  -3.570  0.0000E+00  0.8000E+01
  -3.560  0.0000E+00  0.8000E+01
  -3.550  0.0000E+00  0.8000E+01
  -3.540  0.0000E+00  0.8000E+01
  -3.530  0.0000E+00  0.8000E+01
  -3.520  0.0000E+00  0.8000E+01
  -3.510  0.0000E+00  0.8000E+01
  -3.500  0.0000E+00  0.8000E+01
  -3.490  0.0000E+00  0.8000E+01
  -3.480  0.0000E+00  0.8000E+01
  -3.470  0.0000E+00  0.8000E+01
  -3.460  0.0000E+00  0.8000E+01
  -3.450  0.0000E+00  0.8000E+01
  -3.440  0.0000E+00  0.8000E+01
  -3.430  0.0000E+00  0.8000E+01
  -3.420  0.0000E+00  0.8000E+01
  -3.410  0.0000E+00  0.8000E+01
  -3.400  0.0000E+00  0.8000E+01
  -3.390  0.0000E+00  0.8000E+01
  -3.380  0.0000E+00  0.8000E+01
  -3.370  0.0000E+00  0.8000E+01
  -3.360  0.0000E+00  0.8000E+01
  -3.350  0.0000E+00  0.8000E+01
  -3.340  0.0000E+00  0.8000E+01
  -3.330  0.0000E+00  0.8000E+01
  -3.320  0.0000E+00  0.8000E+01
  -3.310  0.0000E+00  0.8000E+01
  -3.300  0.0000E+00  0.8000E+01
  -3.290  0.0000E+00  0.8000E+01
  -3.280  0.0000E+00  0.8000E+01
  -3.270  0.0000E+00  0.8000E+01
  -3.260  0.0000E+00  0.8000E+01
  -3.250  0.0000E+00  0.8000E+01
  -3.240  0.0000E+00  0.8000E+01
  -3.230  0.0000E+00  0.8000E+01
  -3.220  0.0000E+00  0.8000E+01
  -3.210  0.0000E+00  0.8000E+01
  -3.200  0.0000E+00  0.8000E+01
  -3.190  0.0000E+00  0.8000E+01
  -3.180  0.0000E+00  0.8000E+01
  -3.170  0.0000E+00  0.8000E+01
  -3.160  0.0000E+00  0.8000E+01
  -3.150  0.0000E+00  0.8000E+01
  -3.140  0.0000E+00  0.8000E+01
  -3.130  0.0000E+00  0.8000E+01
  -3.120  0.0000E+00  0.8000E+01
  -3.110  0.0000E+00  0.8000E+01
  -3.100  0.0000E+00  0.8000E+01
  -3.090  0.0000E+00  0.8000E+01
  -3.080  0.0000E+00  0.8000E+01
  -3.070  0.0000E+00  0.8000E+01
  -3.060  0.0000E+00  0.8000E+01
  -3.050  0.0000E+00  0.8000E+01
  -3.040  0.0000E+00  0.8000E+01
  -3.030  0.0000E+00  0.8000E+01
  -3.020  0.0000E+00  0.8000E+01
  -3.010  0.0000E+00  0.8000E+01
  -3.000  0.0000E+00  0.8000E+01
  -2.990  0.0000E+00  0.8000E+01
  -2.980  0.0000E+00  0.8000E+01
  -2.970  0.0000E+00  0.8000E+01
  -2.960  0.0000E+00  0.8000E+01
  -2.950  0.0000E+00  0.8000E+01
  -2.940  0.0000E+00  0.8000E+01
  -2.930  0.0000E+00  0.8000E+01
  -2.920  0.0000E+00  0.8000E+01
  -2.910  0.0000E+00  0.8000E+01
  -2.900  0.0000E+00  0.8000E+01
  -2.890  0.0000E+00  0.8000E+01
  -2.880  0.0000E+00  0.8000E+01
  -2.870  0.0000E+00  0.8000E+01
  -2.860  0.0000E+00  0.8000E+01
  -2.850  0.0000E+00  0.8000E+01
  -2.840  0.0000E+00  0.8000E+01
  -2.830  0.0000E+00  0.8000E+01
  -2.820  0.0000E+00  0.8000E+01
  -2.810  0.0000E+00  0.8000E+01
  -2.800  0.0000E+00  0.8000E+01
  -2.790  0.0000E+00  0.8000E+01
  -2.780  0.0000E+00  0.8000E+01
  -2.770  0.0000E+00  0.8000E+01
  -2.760  0.0000E+00  0.8000E+01
  -2.750  0.0000E+00  0.8000E+01
  -2.740  0.0000E+00  0.8000E+01
  -2.730  0.0000E+00  0.8000E+01
  -2.720  0.0000E+00  0.8000E+01
  -2.710  0.0000E+00  0.8000E+01
  -2.700  0.0000E+00  0.8000E+01
  -2.690  0.0000E+00  0.8000E+01
  -2.680  0.0000E+00  0.8000E+01
  -2.670  0.0000E+00  0.8000E+01
  -2.660  0.0000E+00  0.8000E+01
  -2.650  0.0000E+00  0.8000E+01
  -2.640  0.0000E+00  0.8000E+01
  -2.630  0.0000E+00  0.8000E+01
  -2.620  0.0000E+00  0.8000E+01
  -2.610  0.0000E+00  0.8000E+01
  -2.600  0.0000E+00  0.8000E+01
  -2.590  0.0000E+00  0.8000E+01
  -2.580  0.0000E+00  0.8000E+01
  -2.570  0.0000E+00  0.8000E+01
  -2.560  0.0000E+00  0.8000E+01
  -2.550  0.0000E+00  0.8000E+01
  -2.540  0.0000E+00  0.8000E+01
  -2.530  0.0000E+00  0.8000E+01
  -2.520  0.0000E+00  0.8000E+01
  -2.510  0.0000E+00  0.8000E+01
  -2.500  0.0000E+00  0.8000E+01
  -2.490  0.0000E+00  0.8000E+01
  -2.480  0.0000E+00  0.8000E+01
  -2.470  0.0000E+00  0.8000E+01
  -2.460  0.0000E+00  0.8000E+01
  -2.450  0.0000E+00  0.8000E+01
  -2.440  0.0000E+00  0.8000E+01
  -2.430  0.0000E+00  0.8000E+01
  -2.420  0.0000E+00  0.8000E+01
  -2.410  0.0000E+00  0.8000E+01
  -2.400  0.0000E+00  0.8000E+01
  -2.390  0.0000E+00  0.8000E+01
  -2.380  0.0000E+00  0.8000E+01
  -2.370  0.0000E+00  0.8000E+01
  -2.360  0.0000E+00  0.8000E+01
  -2.350  0.0000E+00  0.8000E+01
  -2.340  0.0000E+00  0.8000E+01
  -2.330  0.0000E+00  0.8000E+01
  -2.320  0.0000E+00  0.8000E+01
  -2.310  0.0000E+00  0.8000E+01
  -2.300  0.0000E+00  0.8000E+01
  -2.290  0.0000E+00  0.8000E+01
  -2.280  0.0000E+00  0.8000E+01
  -2.270  0.0000E+00  0.8000E+01
  -2.260  0.0000E+00  0.8000E+01
  -2.250  0.0000E+00  0.8000E+01
  -2.240  0.0000E+00  0.8000E+01
  -2.230  0.0000E+00  0.8000E+01
  -2.220  0.0000E+00  0.8000E+01
  -2.210  0.0000E+00  0.8000E+01
  -2.200  0.0000E+00  0.8000E+01
  -2.190  0.0000E+00  0.8000E+01
  -2.180  0.0000E+00  0.8000E+01
  -2.170  0.0000E+00  0.8000E+01
  -2.160  0.0000E+00  0.8000E+01
  -2.150  0.0000E+00  0.8000E+01
  -2.140  0.0000E+00  0.8000E+01
  -2.130  0.0000E+00  0.8000E+01
  -2.120  0.0000E+00  0.8000E+01
  -2.110  0.0000E+00  0.8000E+01
  -2.100  0.0000E+00  0.8000E+01
  -2.090  0.0000E+00  0.8000E+01
  -2.080  0.0000E+00  0.8000E+01
  -2.070  0.0000E+00  0.8000E+01
  -2.060  0.0000E+00  0.8000E+01
  -2.050  0.0000E+00  0.8000E+01
  -2.040  0.0000E+00  0.8000E+01
  -2.030  0.0000E+00  0.8000E+01
  -2.020  0.0000E+00  0.8000E+01
  -2.010  0.0000E+00  0.8000E+01
  -2.000  0.0000E+00  0.8000E+01
  -1.990  0.0000E+00  0.8000E+01
  -1.980  0.0000E+00  0.8000E+01
  -1.970  0.0000E+00  0.8000E+01
  -1.960  0.0000E+00  0.8000E+01
  -1.950  0.0000E+00  0.8000E+01
  -1.940  0.0000E+00  0.8000E+01
  -1.930  0.0000E+00  0.8000E+01
  -1.920  0.0000E+00  0.8000E+01
  -1.910  0.0000E+00  0.8000E+01
  -1.900  0.0000E+00  0.8000E+01
  -1.890  0.0000E+00  0.8000E+01
  -1.880  0.0000E+00  0.8000E+01
  -1.870  0.0000E+00  0.8000E+01
  -1.860  0.0000E+00  0.8000E+01
  -1.850  0.0000E+00  0.8000E+01
  -1.840  0.0000E+00  0.8000E+01
  -1.830  0.0000E+00  0.8000E+01
  -1.820  0.0000E+00  0.8000E+01
  -1.810  0.0000E+00  0.8000E+01
  -1.800  0.0000E+00  0.8000E+01
  -1.790  0.0000E+00  0.8000E+01
  -1.780  0.0000E+00  0.8000E+01
  -1.770  0.0000E+00  0.8000E+01
  -1.760  0.0000E+00  0.8000E+01
  -1.750  0.0000E+00  0.8000E+01
  -1.740  0.0000E+00  0.8000E+01
  -1.730  0.0000E+00  0.8000E+01
  -1.720  0.0000E+00  0.8000E+01
  -1.710  0.0000E+00  0.8000E+01
  -1.700  0.0000E+00  0.8000E+01
  -1.690  0.0000E+00  0.8000E+01
  -1.680  0.0000E+00  0.8000E+01
  -1.670  0.0000E+00  0.8000E+01
  -1.660  0.0000E+00  0.8000E+01
  -1.650  0.0000E+00  0.8000E+01
  -1.640  0.0000E+00  0.8000E+01
  -1.630  0.0000E+00  0.8000E+01
  -1.620  0.0000E+00  0.8000E+01
  -1.610  0.0000E+00  0.8000E+01
  -1.600  0.0000E+00  0.8000E+01
  -1.590  0.0000E+00  0.8000E+01
  -1.580  0.0000E+00  0.8000E+01
  -1.570  0.0000E+00  0.8000E+01
  -1.560  0.0000E+00  0.8000E+01
  -1.550  0.0000E+00  0.8000E+01
  -1.540  0.0000E+00  0.8000E+01
  -1.530  0.0000E+00  0.8000E+01
  -1.520  0.0000E+00  0.8000E+01
  -1.510  0.0000E+00  0.8000E+01
  -1.500  0.0000E+00  0.8000E+01
  -1.490  0.0000E+00  0.8000E+01
  -1.480  0.0000E+00  0.8000E+01
  -1.470  0.0000E+00  0.8000E+01
  -1.460  0.0000E+00  0.8000E+01
  -1.450  0.0000E+00  0.8000E+01
  -1.440  0.0000E+00  0.8000E+01
  -1.430  0.0000E+00  0.8000E+01
  -1.420  0.0000E+00  0.8000E+01
  -1.410  0.0000E+00  0.8000E+01
  -1.400  0.0000E+00  0.8000E+01
  -1.390  0.0000E+00  0.8000E+01
  -1.380  0.0000E+00  0.8000E+01
  -1.370  0.0000E+00  0.8000E+01
  -1.360  0.0000E+00  0.8000E+01
  -1.350  0.0000E+00  0.8000E+01
  -1.340  0.0000E+00  0.8000E+01
  -1.330  0.0000E+00  0.8000E+01
  -1.320  0.0000E+00  0.8000E+01
  -1.310  0.0000E+00  0.8000E+01
  -1.300  0.0000E+00  0.8000E+01
  -1.290  0.0000E+00  0.8000E+01
  -1.280  0.0000E+00  0.8000E+01
  -1.270  0.0000E+00  0.8000E+01
  -1.260  0.0000E+00  0.8000E+01
  -1.250  0.0000E+00  0.8000E+01
  -1.240  0.0000E+00  0.8000E+01
  -1.230  0.0000E+00  0.8000E+01
  -1.220  0.0000E+00  0.8000E+01
  -1.210  0.0000E+00  0.8000E+01
  -1.200  0.0000E+00  0.8000E+01
  -1.190  0.0000E+00  0.8000E+01
  -1.180  0.1477E-01  0.8000E+01
  -1.170  0.4473E-01  0.8000E+01
  -1.160  0.7995E-01  0.8001E+01
  -1.150  0.1132E+00  0.8002E+01
  -1.140  0.1490E+00  0.8003E+01
  -1.130  0.1816E+00  0.8005E+01
  -1.120  0.2161E+00  0.8007E+01
  -1.110  0.2517E+00  0.8009E+01
  -1.100  0.2854E+00  0.8012E+01
  -1.090  0.4440E+00  0.8015E+01
  -1.080  0.4685E+00  0.8020E+01
  -1.070  0.4499E+00  0.8025E+01
  -1.060  0.4745E+00  0.8029E+01
  -1.050  0.4632E+00  0.8034E+01
  -1.040  0.4608E+00  0.8039E+01
  -1.030  0.4770E+00  0.8043E+01
  -1.020  0.4653E+00  0.8048E+01
  -1.010  0.4646E+00  0.8053E+01
  -1.000  0.4679E+00  0.8057E+01
  -0.990  0.4780E+00  0.8062E+01
  -0.980  0.4661E+00  0.8067E+01
  -0.970  0.4682E+00  0.8071E+01
  -0.960  0.4707E+00  0.8076E+01
  -0.950  0.4736E+00  0.8081E+01
  -0.940  0.4788E+00  0.8086E+01
  -0.930  0.4718E+00  0.8090E+01
  -0.920  0.6421E+00  0.8096E+01
  -0.910  0.9704E+00  0.8104E+01
  -0.900  0.1316E+01  0.8116E+01
  -0.890  0.1307E+01  0.8128E+01
  -0.880  0.1318E+01  0.8142E+01
  -0.870  0.1241E+01  0.8155E+01
  -0.860  0.1574E+01  0.8168E+01
  -0.850  0.1986E+01  0.8187E+01
  -0.840  0.2171E+01  0.8208E+01
  -0.830  0.2390E+01  0.8231E+01
  -0.820  0.2320E+01  0.8254E+01
  -0.810  0.2365E+01  0.8278E+01
  -0.800  0.2418E+01  0.8302E+01
  -0.790  0.2479E+01  0.8326E+01
  -0.780  0.2480E+01  0.8351E+01
  -0.770  0.2503E+01  0.8376E+01
  -0.760  0.2506E+01  0.8401E+01
  -0.750  0.2503E+01  0.8426E+01
  -0.740  0.2559E+01  0.8451E+01
  -0.730  0.2624E+01  0.8477E+01
  -0.720  0.2682E+01  0.8504E+01
  -0.710  0.2690E+01  0.8530E+01
  -0.700  0.2673E+01  0.8557E+01
  -0.690  0.2667E+01  0.8584E+01
  -0.680  0.2685E+01  0.8611E+01
  -0.670  0.2734E+01  0.8638E+01
  -0.660  0.2764E+01  0.8665E+01
  -0.650  0.2766E+01  0.8693E+01
  -0.640  0.2758E+01  0.8721E+01
  -0.630  0.2775E+01  0.8748E+01
  -0.620  0.2934E+01  0.8777E+01
  -0.610  0.3100E+01  0.8807E+01
  -0.600  0.3314E+01  0.8839E+01
  -0.590  0.3642E+01  0.8874E+01
  -0.580  0.3588E+01  0.8910E+01
  -0.570  0.3632E+01  0.8946E+01
  -0.560  0.3612E+01  0.8983E+01
  -0.550  0.3728E+01  0.9019E+01
  -0.540  0.4199E+01  0.9059E+01
  -0.530  0.4410E+01  0.9102E+01
  -0.520  0.4442E+01  0.9147E+01
  -0.510  0.4477E+01  0.9192E+01
  -0.500  0.4512E+01  0.9237E+01
  -0.490  0.4501E+01  0.9282E+01
  -0.480  0.4597E+01  0.9327E+01
  -0.470  0.4629E+01  0.9373E+01
  -0.460  0.4644E+01  0.9420E+01
  -0.450  0.4622E+01  0.9466E+01
  -0.440  0.4635E+01  0.9512E+01
  -0.430  0.4666E+01  0.9559E+01
  -0.420  0.4711E+01  0.9606E+01
  -0.410  0.4784E+01  0.9653E+01
  -0.400  0.4802E+01  0.9701E+01
  -0.390  0.4802E+01  0.9749E+01
  -0.380  0.4802E+01  0.9797E+01
  -0.370  0.4834E+01  0.9845E+01
  -0.360  0.4907E+01  0.9894E+01
  -0.350  0.4957E+01  0.9943E+01
  -0.340  0.4994E+01  0.9993E+01
  -0.330  0.5018E+01  0.1004E+02
  -0.320  0.5045E+01  0.1009E+02
  -0.310  0.5104E+01  0.1014E+02
  -0.300  0.5164E+01  0.1020E+02
  -0.290  0.5183E+01  0.1025E+02
  -0.280  0.5217E+01  0.1030E+02
  -0.270  0.5283E+01  0.1035E+02
  -0.260  0.5371E+01  0.1041E+02
  -0.250  0.5456E+01  0.1046E+02
  -0.240  0.5526E+01  0.1051E+02
  -0.230  0.5616E+01  0.1057E+02
  -0.220  0.5709E+01  0.1063E+02
  -0.210  0.5789E+01  0.1068E+02
  -0.200  0.5880E+01  0.1074E+02
  -0.190  0.6029E+01  0.1080E+02
  -0.180  0.6296E+01  0.1086E+02
  -0.170  0.6723E+01  0.1093E+02
  -0.160  0.6783E+01  0.1100E+02
  -0.150  0.6752E+01  0.1107E+02
  -0.140  0.6700E+01  0.1113E+02
  -0.130  0.6930E+01  0.1120E+02
  -0.120  0.6976E+01  0.1127E+02
  -0.110  0.6691E+01  0.1134E+02
  -0.100  0.6511E+01  0.1141E+02
  -0.090  0.6294E+01  0.1147E+02
  -0.080  0.6193E+01  0.1153E+02
  -0.070  0.6134E+01  0.1159E+02
  -0.060  0.6032E+01  0.1165E+02
  -0.050  0.6047E+01  0.1171E+02
  -0.040  0.6027E+01  0.1178E+02
  -0.030  0.6102E+01  0.1184E+02
  -0.020  0.6012E+01  0.1190E+02
  -0.010  0.6003E+01  0.1196E+02
   0.000  0.5619E+01  0.1201E+02
   0.010  0.5699E+01  0.1207E+02
   0.020  0.5790E+01  0.1213E+02
   0.030  0.5956E+01  0.1219E+02
   0.040  0.6159E+01  0.1225E+02
   0.050  0.6396E+01  0.1231E+02
   0.060  0.6698E+01  0.1238E+02
   0.070  0.6825E+01  0.1244E+02
   0.080  0.6861E+01  0.1251E+02
   0.090  0.6879E+01  0.1258E+02
   0.100  0.6776E+01  0.1265E+02
   0.110  0.6858E+01  0.1272E+02
   0.120  0.7272E+01  0.1279E+02
   0.130  0.7771E+01  0.1286E+02
   0.140  0.7754E+01  0.1294E+02
   0.150  0.7943E+01  0.1302E+02
   0.160  0.8078E+01  0.1310E+02
   0.170  0.7723E+01  0.1318E+02
   0.180  0.7472E+01  0.1325E+02
   0.190  0.6841E+01  0.1332E+02
   0.200  0.6386E+01  0.1339E+02
   0.210  0.5942E+01  0.1345E+02
   0.220  0.5689E+01  0.1351E+02
   0.230  0.4915E+01  0.1356E+02
   0.240  0.4451E+01  0.1361E+02
   0.250  0.3607E+01  0.1365E+02
   0.260  0.2366E+01  0.1368E+02
   0.270  0.2083E+01  0.1370E+02
   0.280  0.1965E+01  0.1373E+02
   0.290  0.1883E+01  0.1374E+02
   0.300  0.1419E+01  0.1376E+02
   0.310  0.1384E+01  0.1378E+02
   0.320  0.1357E+01  0.1379E+02
   0.330  0.1337E+01  0.1380E+02
   0.340  0.1322E+01  0.1382E+02
   0.350  0.1305E+01  0.1383E+02
   0.360  0.1287E+01  0.1384E+02
   0.370  0.1267E+01  0.1385E+02
   0.380  0.1245E+01  0.1387E+02
   0.390  0.1226E+01  0.1388E+02
   0.400  0.1211E+01  0.1389E+02
   0.410  0.1199E+01  0.1390E+02
   0.420  0.1189E+01  0.1392E+02
   0.430  0.1176E+01  0.1393E+02
   0.440  0.1162E+01  0.1394E+02
   0.450  0.1146E+01  0.1395E+02
   0.460  0.1132E+01  0.1396E+02
   0.470  0.1120E+01  0.1397E+02
   0.480  0.1110E+01  0.1398E+02
   0.490  0.1100E+01  0.1400E+02
   0.500  0.1090E+01  0.1401E+02
   0.510  0.1081E+01  0.1402E+02
   0.520  0.1072E+01  0.1403E+02
   0.530  0.1063E+01  0.1404E+02
   0.540  0.1062E+01  0.1405E+02
   0.550  0.1062E+01  0.1406E+02
   0.560  0.1064E+01  0.1407E+02
   0.570  0.1067E+01  0.1408E+02
   0.580  0.1071E+01  0.1409E+02
   0.590  0.1077E+01  0.1410E+02
   0.600  0.1082E+01  0.1411E+02
   0.610  0.1086E+01  0.1412E+02
   0.620  0.1089E+01  0.1414E+02
   0.630  0.1093E+01  0.1415E+02
   0.640  0.1095E+01  0.1416E+02
   0.650  0.1098E+01  0.1417E+02
   0.660  0.1104E+01  0.1418E+02
   0.670  0.1110E+01  0.1419E+02
   0.680  0.1115E+01  0.1420E+02
   0.690  0.1121E+01  0.1421E+02
   0.700  0.1128E+01  0.1422E+02
   0.710  0.1134E+01  0.1423E+02
   0.720  0.1141E+01  0.1425E+02
   0.730  0.1148E+01  0.1426E+02
   0.740  0.1154E+01  0.1427E+02
   0.750  0.1159E+01  0.1428E+02
   0.760  0.1164E+01  0.1429E+02
   0.770  0.1171E+01  0.1430E+02
   0.780  0.1178E+01  0.1432E+02
   0.790  0.1218E+01  0.1433E+02
   0.800  0.1263E+01  0.1434E+02
   0.810  0.1322E+01  0.1435E+02
   0.820  0.1335E+01  0.1437E+02
   0.830  0.1349E+01  0.1438E+02
   0.840  0.1514E+01  0.1439E+02
   0.850  0.1552E+01  0.1441E+02
   0.860  0.1563E+01  0.1443E+02
   0.870  0.1592E+01  0.1444E+02
   0.880  0.1569E+01  0.1446E+02
   0.890  0.1605E+01  0.1447E+02
   0.900  0.1602E+01  0.1449E+02
   0.910  0.1620E+01  0.1451E+02
   0.920  0.1657E+01  0.1452E+02
   0.930  0.1670E+01  0.1454E+02
   0.940  0.1678E+01  0.1456E+02
   0.950  0.1684E+01  0.1457E+02
   0.960  0.1695E+01  0.1459E+02
   0.970  0.1703E+01  0.1461E+02
   0.980  0.1705E+01  0.1462E+02
   0.990  0.1713E+01  0.1464E+02
   1.000  0.1721E+01  0.1466E+02
   1.010  0.1733E+01  0.1467E+02
   1.020  0.1744E+01  0.1469E+02
   1.030  0.1767E+01  0.1471E+02
   1.040  0.1793E+01  0.1473E+02
   1.050  0.1851E+01  0.1475E+02
   1.060  0.1862E+01  0.1476E+02
   1.070  0.1862E+01  0.1478E+02
   1.080  0.1870E+01  0.1480E+02
   1.090  0.1877E+01  0.1482E+02
   1.100  0.1885E+01  0.1484E+02
   1.110  0.1895E+01  0.1486E+02
   1.120  0.1932E+01  0.1488E+02
   1.130  0.2043E+01  0.1490E+02
   1.140  0.2184E+01  0.1492E+02
   1.150  0.2321E+01  0.1494E+02
   1.160  0.2441E+01  0.1496E+02
   1.170  0.2558E+01  0.1499E+02
   1.180  0.2689E+01  0.1502E+02
   1.190  0.2836E+01  0.1504E+02
   1.200  0.3121E+01  0.1507E+02
   1.210  0.3258E+01  0.1510E+02
   1.220  0.3313E+01  0.1514E+02
   1.230  0.3292E+01  0.1517E+02
   1.240  0.3333E+01  0.1520E+02
   1.250  0.3529E+01  0.1524E+02
   1.260  0.3434E+01  0.1527E+02
   1.270  0.3454E+01  0.1531E+02
   1.280  0.3501E+01  0.1534E+02
   1.290  0.3555E+01  0.1538E+02
   1.300  0.3612E+01  0.1541E+02
   1.310  0.3744E+01  0.1545E+02
   1.320  0.3711E+01  0.1549E+02
   1.330  0.3749E+01  0.1552E+02
   1.340  0.3820E+01  0.1556E+02
   1.350  0.3936E+01  0.1560E+02
   1.360  0.4084E+01  0.1564E+02
   1.370  0.4214E+01  0.1568E+02
   1.380  0.4343E+01  0.1573E+02
   1.390  0.4457E+01  0.1577E+02
   1.400  0.4553E+01  0.1581E+02
   1.410  0.4729E+01  0.1586E+02
   1.420  0.5175E+01  0.1591E+02
   1.430  0.5277E+01  0.1596E+02
   1.440  0.5478E+01  0.1602E+02
   1.450  0.5567E+01  0.1607E+02
   1.460  0.5468E+01  0.1613E+02
   1.470  0.5269E+01  0.1618E+02
   1.480  0.5105E+01  0.1623E+02
   1.490  0.4910E+01  0.1628E+02
   1.500  0.4817E+01  0.1633E+02
   1.510  0.4679E+01  0.1638E+02
   1.520  0.4473E+01  0.1642E+02
   1.530  0.4172E+01  0.1647E+02
   1.540  0.3935E+01  0.1651E+02
   1.550  0.3956E+01  0.1655E+02
   1.560  0.4021E+01  0.1659E+02
   1.570  0.4090E+01  0.1663E+02
   1.580  0.4128E+01  0.1667E+02
   1.590  0.4249E+01  0.1671E+02
   1.600  0.4295E+01  0.1675E+02
   1.610  0.4360E+01  0.1679E+02
   1.620  0.4499E+01  0.1684E+02
   1.630  0.4690E+01  0.1689E+02
   1.640  0.4699E+01  0.1693E+02
   1.650  0.4717E+01  0.1698E+02
   1.660  0.4726E+01  0.1703E+02
   1.670  0.4781E+01  0.1707E+02
   1.680  0.4841E+01  0.1712E+02
   1.690  0.4903E+01  0.1717E+02
   1.700  0.4955E+01  0.1722E+02
   1.710  0.5012E+01  0.1727E+02
   1.720  0.5078E+01  0.1732E+02
   1.730  0.5151E+01  0.1737E+02
   1.740  0.5233E+01  0.1742E+02
   1.750  0.5334E+01  0.1748E+02
   1.760  0.5423E+01  0.1753E+02
   1.770  0.5548E+01  0.1758E+02
   1.780  0.5719E+01  0.1764E+02
   1.790  0.6155E+01  0.1770E+02
   1.800  0.6258E+01  0.1776E+02
   1.810  0.6201E+01  0.1783E+02
   1.820  0.6001E+01  0.1789E+02
   1.830  0.5187E+01  0.1794E+02
   1.840  0.5105E+01  0.1800E+02
   1.850  0.5020E+01  0.1805E+02
   1.860  0.4951E+01  0.1810E+02
   1.870  0.4898E+01  0.1815E+02
   1.880  0.4694E+01  0.1819E+02
   1.890  0.4655E+01  0.1824E+02
   1.900  0.4632E+01  0.1829E+02
   1.910  0.4617E+01  0.1833E+02
   1.920  0.4602E+01  0.1838E+02
   1.930  0.4589E+01  0.1842E+02
   1.940  0.4570E+01  0.1847E+02
   1.950  0.4598E+01  0.1852E+02
   1.960  0.4633E+01  0.1856E+02
   1.970  0.4709E+01  0.1861E+02
   1.980  0.4750E+01  0.1866E+02
   1.990  0.4730E+01  0.1870E+02
   2.000  0.4765E+01  0.1875E+02
   2.010  0.4749E+01  0.1880E+02
   2.020  0.4663E+01  0.1885E+02
   2.030  0.4604E+01  0.1889E+02
   2.040  0.4586E+01  0.1894E+02
   2.050  0.4556E+01  0.1898E+02
   2.060  0.4489E+01  0.1903E+02
   2.070  0.4411E+01  0.1907E+02
   2.080  0.4386E+01  0.1912E+02
   2.090  0.4405E+01  0.1916E+02
   2.100  0.4537E+01  0.1921E+02
   2.110  0.4358E+01  0.1925E+02
   2.120  0.4342E+01  0.1929E+02
   2.130  0.4216E+01  0.1934E+02
   2.140  0.4158E+01  0.1938E+02
   2.150  0.4127E+01  0.1942E+02
   2.160  0.4133E+01  0.1946E+02
   2.170  0.4148E+01  0.1950E+02
   2.180  0.4209E+01  0.1955E+02
   2.190  0.4339E+01  0.1959E+02
   2.200  0.4331E+01  0.1963E+02
   2.210  0.4276E+01  0.1968E+02
   2.220  0.4168E+01  0.1972E+02
   2.230  0.4195E+01  0.1976E+02
   2.240  0.4266E+01  0.1980E+02
   2.250  0.4295E+01  0.1984E+02
   2.260  0.4327E+01  0.1989E+02
   2.270  0.4457E+01  0.1993E+02
   2.280  0.4511E+01  0.1998E+02
   2.290  0.4666E+01  0.2002E+02
   2.300  0.4722E+01  0.2007E+02
   2.310  0.5011E+01  0.2012E+02
   2.320  0.4927E+01  0.2017E+02
   2.330  0.4870E+01  0.2022E+02
   2.340  0.4655E+01  0.2026E+02
   2.350  0.4376E+01  0.2031E+02
   2.360  0.4298E+01  0.2035E+02
   2.370  0.4271E+01  0.2040E+02
   2.380  0.4254E+01  0.2044E+02
   2.390  0.4216E+01  0.2048E+02
   2.400  0.4166E+01  0.2052E+02
   2.410  0.4101E+01  0.2056E+02
   2.420  0.4044E+01  0.2060E+02
   2.430  0.3998E+01  0.2064E+02
   2.440  0.3957E+01  0.2068E+02
   2.450  0.3906E+01  0.2072E+02
   2.460  0.3873E+01  0.2076E+02
   2.470  0.3896E+01  0.2080E+02
   2.480  0.3945E+01  0.2084E+02
   2.490  0.3996E+01  0.2088E+02
   2.500  0.4042E+01  0.2092E+02
   2.510  0.4131E+01  0.2096E+02
   2.520  0.4294E+01  0.2100E+02
   2.530  0.4276E+01  0.2105E+02
   2.540  0.4227E+01  0.2109E+02
   2.550  0.4205E+01  0.2113E+02
   2.560  0.4172E+01  0.2117E+02
   2.570  0.4105E+01  0.2121E+02
   2.580  0.4044E+01  0.2125E+02
   2.590  0.3927E+01  0.2129E+02
   2.600  0.3862E+01  0.2133E+02
   2.610  0.4248E+01  0.2137E+02
   2.620  0.4525E+01  0.2142E+02
   2.630  0.4605E+01  0.2146E+02
   2.640  0.4695E+01  0.2151E+02
   2.650  0.4714E+01  0.2156E+02
   2.660  0.4827E+01  0.2160E+02
   2.670  0.4913E+01  0.2165E+02
   2.680  0.5146E+01  0.2170E+02
   2.690  0.5202E+01  0.2176E+02
   2.700  0.5550E+01  0.2181E+02
   2.710  0.5682E+01  0.2187E+02
   2.720  0.5719E+01  0.2192E+02
   2.730  0.5787E+01  0.2198E+02
   2.740  0.5792E+01  0.2204E+02
   2.750  0.5802E+01  0.2210E+02
   2.760  0.5862E+01  0.2215E+02
   2.770  0.5954E+01  0.2221E+02
   2.780  0.6116E+01  0.2227E+02
   2.790  0.6197E+01  0.2233E+02
   2.800  0.6301E+01  0.2240E+02
   2.810  0.6398E+01  0.2246E+02
   2.820  0.6522E+01  0.2253E+02
   2.830  0.6630E+01  0.2259E+02
   2.840  0.6662E+01  0.2266E+02
   2.850  0.6732E+01  0.2272E+02
   2.860  0.6784E+01  0.2279E+02
   2.870  0.6904E+01  0.2286E+02
   2.880  0.6797E+01  0.2293E+02
   2.890  0.6748E+01  0.2300E+02
   2.900  0.6828E+01  0.2307E+02
   2.910  0.7252E+01  0.2314E+02
   2.920  0.6640E+01  0.2321E+02
   2.930  0.6355E+01  0.2327E+02
   2.940  0.5976E+01  0.2333E+02
   2.950  0.5618E+01  0.2339E+02
   2.960  0.5542E+01  0.2345E+02
   2.970  0.5485E+01  0.2350E+02
   2.980  0.5442E+01  0.2356E+02
   2.990  0.5460E+01  0.2361E+02
   3.000  0.5541E+01  0.2366E+02
   3.010  0.5583E+01  0.2372E+02
   3.020  0.4608E+01  0.2377E+02
   3.030  0.4617E+01  0.2382E+02
   3.040  0.4652E+01  0.2387E+02
   3.050  0.4650E+01  0.2391E+02
   3.060  0.4718E+01  0.2396E+02
   3.070  0.4791E+01  0.2401E+02
   3.080  0.4859E+01  0.2406E+02
   3.090  0.4926E+01  0.2411E+02
   3.100  0.4986E+01  0.2416E+02
   3.110  0.5071E+01  0.2421E+02
   3.120  0.5227E+01  0.2426E+02
   3.130  0.5249E+01  0.2431E+02
   3.140  0.5334E+01  0.2436E+02
   3.150  0.5456E+01  0.2442E+02
   3.160  0.5569E+01  0.2447E+02
   3.170  0.5755E+01  0.2453E+02
   3.180  0.5894E+01  0.2459E+02
   3.190  0.6261E+01  0.2465E+02
   3.200  0.6472E+01  0.2471E+02
   3.210  0.6581E+01  0.2478E+02
   3.220  0.7142E+01  0.2485E+02
   3.230  0.6044E+01  0.2492E+02
   3.240  0.5851E+01  0.2498E+02
   3.250  0.5766E+01  0.2504E+02
   3.260  0.5690E+01  0.2509E+02
   3.270  0.5650E+01  0.2515E+02
   3.280  0.5652E+01  0.2521E+02
   3.290  0.5481E+01  0.2526E+02
   3.300  0.5371E+01  0.2532E+02
   3.310  0.5249E+01  0.2537E+02
   3.320  0.5021E+01  0.2542E+02
   3.330  0.4868E+01  0.2547E+02
   3.340  0.4918E+01  0.2552E+02
   3.350  0.5018E+01  0.2557E+02
   3.360  0.5050E+01  0.2562E+02
   3.370  0.5586E+01  0.2567E+02
   3.380  0.6663E+01  0.2573E+02
   3.390  0.6184E+01  0.2580E+02
   3.400  0.6631E+01  0.2586E+02
   3.410  0.7086E+01  0.2593E+02
   3.420  0.8006E+01  0.2600E+02
   3.430  0.9048E+01  0.2609E+02
   3.440  0.8796E+01  0.2618E+02
   3.450  0.7060E+01  0.2625E+02
   3.460  0.6405E+01  0.2632E+02
   3.470  0.5824E+01  0.2638E+02
   3.480  0.5176E+01  0.2644E+02
   3.490  0.4297E+01  0.2648E+02
   3.500  0.3690E+01  0.2652E+02
   3.510  0.3412E+01  0.2656E+02
   3.520  0.3419E+01  0.2659E+02
   3.530  0.3435E+01  0.2663E+02
   3.540  0.3459E+01  0.2666E+02
   3.550  0.3495E+01  0.2670E+02
   3.560  0.3538E+01  0.2673E+02
   3.570  0.3586E+01  0.2677E+02
   3.580  0.3647E+01  0.2680E+02
   3.590  0.3723E+01  0.2684E+02
   3.600  0.3730E+01  0.2688E+02
   3.610  0.3739E+01  0.2691E+02
   3.620  0.3754E+01  0.2695E+02
   3.630  0.3775E+01  0.2699E+02
   3.640  0.3795E+01  0.2703E+02
   3.650  0.3815E+01  0.2707E+02
   3.660  0.3837E+01  0.2710E+02
   3.670  0.3862E+01  0.2714E+02
   3.680  0.3890E+01  0.2718E+02
   3.690  0.3917E+01  0.2722E+02
   3.700  0.3943E+01  0.2726E+02
   3.710  0.3968E+01  0.2730E+02
   3.720  0.3996E+01  0.2734E+02
   3.730  0.4029E+01  0.2738E+02
   3.740  0.4087E+01  0.2742E+02
   3.750  0.4153E+01  0.2746E+02
   3.760  0.4210E+01  0.2750E+02
   3.770  0.4275E+01  0.2755E+02
   3.780  0.4360E+01  0.2759E+02
   3.790  0.4457E+01  0.2763E+02
   3.800  0.4646E+01  0.2768E+02
   3.810  0.4757E+01  0.2772E+02
   3.820  0.4892E+01  0.2777E+02
   3.830  0.5073E+01  0.2782E+02
   3.840  0.5109E+01  0.2787E+02
   3.850  0.5088E+01  0.2792E+02
   3.860  0.5041E+01  0.2798E+02
   3.870  0.5019E+01  0.2803E+02
   3.880  0.4985E+01  0.2808E+02
   3.890  0.4795E+01  0.2812E+02
   3.900  0.4686E+01  0.2817E+02
   3.910  0.4713E+01  0.2822E+02
   3.920  0.4769E+01  0.2827E+02
   3.930  0.4779E+01  0.2831E+02
   3.940  0.4837E+01  0.2836E+02
   3.950  0.5070E+01  0.2841E+02
   3.960  0.5607E+01  0.2847E+02
   3.970  0.7370E+01  0.2853E+02
   3.980  0.4677E+01  0.2858E+02
   3.990  0.4575E+01  0.2863E+02
   4.000  0.4569E+01  0.2867E+02
   4.010  0.4550E+01  0.2872E+02
   4.020  0.4378E+01  0.2876E+02
   4.030  0.4087E+01  0.2880E+02
   4.040  0.3927E+01  0.2884E+02
   4.050  0.3962E+01  0.2888E+02
   4.060  0.3955E+01  0.2892E+02
   4.070  0.3863E+01  0.2896E+02
   4.080  0.3872E+01  0.2900E+02
   4.090  0.4046E+01  0.2904E+02
   4.100  0.3948E+01  0.2908E+02
   4.110  0.3958E+01  0.2912E+02
   4.120  0.3957E+01  0.2916E+02
   4.130  0.4209E+01  0.2920E+02
   4.140  0.4190E+01  0.2924E+02
   4.150  0.4192E+01  0.2928E+02
   4.160  0.4172E+01  0.2933E+02
   4.170  0.4148E+01  0.2937E+02
   4.180  0.4271E+01  0.2941E+02
   4.190  0.4501E+01  0.2945E+02
   4.200  0.4439E+01  0.2950E+02
   4.210  0.4471E+01  0.2954E+02
   4.220  0.4525E+01  0.2959E+02
   4.230  0.4558E+01  0.2963E+02
   4.240  0.4535E+01  0.2968E+02
   4.250  0.4631E+01  0.2972E+02
   4.260  0.4632E+01  0.2977E+02
   4.270  0.4602E+01  0.2982E+02
   4.280  0.4669E+01  0.2986E+02
   4.290  0.4972E+01  0.2991E+02
   4.300  0.4988E+01  0.2996E+02
   4.310  0.5161E+01  0.3001E+02
   4.320  0.5236E+01  0.3006E+02
   4.330  0.5307E+01  0.3012E+02
   4.340  0.5417E+01  0.3017E+02
   4.350  0.5522E+01  0.3022E+02
   4.360  0.5529E+01  0.3028E+02
   4.370  0.5532E+01  0.3034E+02
   4.380  0.5568E+01  0.3039E+02
   4.390  0.5623E+01  0.3045E+02
   4.400  0.6304E+01  0.3050E+02
   4.410  0.7253E+01  0.3057E+02
   4.420  0.6535E+01  0.3064E+02
   4.430  0.6391E+01  0.3070E+02
   4.440  0.5930E+01  0.3077E+02
   4.450  0.5790E+01  0.3082E+02
   4.460  0.5749E+01  0.3088E+02
   4.470  0.5746E+01  0.3094E+02
   4.480  0.5741E+01  0.3100E+02
   4.490  0.5794E+01  0.3105E+02
   4.500  0.5848E+01  0.3111E+02
   4.510  0.5824E+01  0.3117E+02
   4.520  0.5970E+01  0.3123E+02
   4.530  0.6148E+01  0.3129E+02
   4.540  0.6386E+01  0.3135E+02
   4.550  0.6557E+01  0.3142E+02
   4.560  0.6755E+01  0.3148E+02
   4.570  0.7041E+01  0.3155E+02
   4.580  0.7259E+01  0.3163E+02
   4.590  0.7550E+01  0.3170E+02
   4.600  0.7837E+01  0.3178E+02
   4.610  0.8112E+01  0.3186E+02
   4.620  0.8439E+01  0.3194E+02
   4.630  0.8938E+01  0.3202E+02
   4.640  0.8591E+01  0.3212E+02
   4.650  0.8732E+01  0.3221E+02
   4.660  0.8339E+01  0.3229E+02
   4.670  0.8323E+01  0.3237E+02
   4.680  0.8401E+01  0.3246E+02
   4.690  0.8538E+01  0.3254E+02
   4.700  0.8507E+01  0.3263E+02
   4.710  0.8564E+01  0.3271E+02
   4.720  0.8625E+01  0.3280E+02
   4.730  0.8963E+01  0.3289E+02
   4.740  0.1046E+02  0.3298E+02
   4.750  0.9799E+01  0.3309E+02
   4.760  0.8842E+01  0.3318E+02
   4.770  0.8407E+01  0.3327E+02
   4.780  0.8156E+01  0.3335E+02
   4.790  0.7907E+01  0.3343E+02
   4.800  0.7690E+01  0.3351E+02
   4.810  0.7689E+01  0.3358E+02
   4.820  0.8446E+01  0.3366E+02
   4.830  0.8672E+01  0.3375E+02
   4.840  0.8264E+01  0.3384E+02
   4.850  0.7727E+01  0.3392E+02
   4.860  0.7250E+01  0.3399E+02
   4.870  0.6855E+01  0.3406E+02
   4.880  0.6688E+01  0.3413E+02
   4.890  0.6234E+01  0.3420E+02
   4.900  0.5606E+01  0.3426E+02
   4.910  0.5341E+01  0.3431E+02
   4.920  0.5599E+01  0.3437E+02
   4.930  0.5408E+01  0.3442E+02
   4.940  0.5568E+01  0.3448E+02
   4.950  0.5855E+01  0.3453E+02
   4.960  0.6283E+01  0.3459E+02
   4.970  0.7154E+01  0.3466E+02
   4.980  0.7531E+01  0.3474E+02
   4.990  0.7290E+01  0.3481E+02
   5.000  0.7193E+01  0.3488E+02
   5.010  0.7515E+01  0.3496E+02
   5.020  0.5510E+01  0.3502E+02
   5.030  0.5249E+01  0.3507E+02
   5.040  0.5047E+01  0.3512E+02
   5.050  0.4901E+01  0.3517E+02
   5.060  0.4761E+01  0.3522E+02
   5.070  0.4659E+01  0.3527E+02
   5.080  0.4722E+01  0.3532E+02
   5.090  0.4434E+01  0.3536E+02
   5.100  0.3833E+01  0.3540E+02
   5.110  0.3513E+01  0.3544E+02
   5.120  0.3186E+01  0.3547E+02
   5.130  0.2794E+01  0.3550E+02
   5.140  0.2277E+01  0.3553E+02
   5.150  0.1975E+01  0.3555E+02
   5.160  0.1945E+01  0.3557E+02
   5.170  0.1938E+01  0.3559E+02
   5.180  0.1904E+01  0.3561E+02
   5.190  0.1876E+01  0.3563E+02
   5.200  0.1878E+01  0.3565E+02
   5.210  0.1878E+01  0.3566E+02
   5.220  0.1892E+01  0.3568E+02
   5.230  0.1884E+01  0.3570E+02
   5.240  0.1876E+01  0.3572E+02
   5.250  0.1870E+01  0.3574E+02
   5.260  0.1891E+01  0.3576E+02
   5.270  0.1855E+01  0.3578E+02
   5.280  0.1836E+01  0.3580E+02
   5.290  0.1813E+01  0.3581E+02
   5.300  0.1782E+01  0.3583E+02
   5.310  0.1754E+01  0.3585E+02
   5.320  0.1917E+01  0.3587E+02
   5.330  0.1687E+01  0.3589E+02
   5.340  0.1584E+01  0.3590E+02
   5.350  0.1374E+01  0.3592E+02
   5.360  0.1217E+01  0.3593E+02
   5.370  0.1095E+01  0.3594E+02
   5.380  0.9538E+00  0.3595E+02
   5.390  0.9750E+00  0.3596E+02
   5.400  0.9253E+00  0.3597E+02
   5.410  0.9415E+00  0.3598E+02
   5.420  0.7406E+00  0.3599E+02
   5.430  0.4076E+00  0.3600E+02
   5.440  0.2844E+00  0.3600E+02
   5.450  0.1692E-01  0.3600E+02
   5.460  0.0000E+00  0.3600E+02
   5.470  0.0000E+00  0.3600E+02
   5.480  0.0000E+00  0.3600E+02
   5.490  0.0000E+00  0.3600E+02
   5.500  0.0000E+00  0.3600E+02
   5.510  0.0000E+00  0.3600E+02
   5.520  0.0000E+00  0.3600E+02
   5.530  0.0000E+00  0.3600E+02
   5.540  0.0000E+00  0.3600E+02
   5.550  0.0000E+00  0.3600E+02
   5.560  0.0000E+00  0.3600E+02
   5.570  0.0000E+00  0.3600E+02
   5.580  0.0000E+00  0.3600E+02
   5.590  0.0000E+00  0.3600E+02
   5.600  0.0000E+00  0.3600E+02
   5.610  0.0000E+00  0.3600E+02
   5.620  0.0000E+00  0.3600E+02
   5.630  0.0000E+00  0.3600E+02
   5.640  0.0000E+00  0.3600E+02
   5.650  0.0000E+00  0.3600E+02
   5.660  0.0000E+00  0.3600E+02
   5.670  0.0000E+00  0.3600E+02
   5.680  0.0000E+00  0.3600E+02
   5.690  0.0000E+00  0.3600E+02
   5.700  0.0000E+00  0.3600E+02
   5.710  0.0000E+00  0.3600E+02
   5.720  0.0000E+00  0.3600E+02
   5.730  0.0000E+00  0.3600E+02
   5.740  0.0000E+00  0.3600E+02
   5.750  0.0000E+00  0.3600E+02
   5.760  0.0000E+00  0.3600E+02
   5.770  0.0000E+00  0.3600E+02
   5.780  0.0000E+00  0.3600E+02
   5.790  0.0000E+00  0.3600E+02
   5.800  0.0000E+00  0.3600E+02
   5.810  0.0000E+00  0.3600E+02
   5.820  0.0000E+00  0.3600E+02
   5.830  0.0000E+00  0.3600E+02
   5.840  0.0000E+00  0.3600E+02
   5.850  0.0000E+00  0.3600E+02
   5.860  0.0000E+00  0.3600E+02
   5.870  0.0000E+00  0.3600E+02
   5.880  0.0000E+00  0.3600E+02
   5.890  0.0000E+00  0.3600E+02
   5.900  0.0000E+00  0.3600E+02
   5.910  0.0000E+00  0.3600E+02
   5.920  0.0000E+00  0.3600E+02
   5.930  0.0000E+00  0.3600E+02
   5.940  0.0000E+00  0.3600E+02
   5.950  0.0000E+00  0.3600E+02
   5.960  0.0000E+00  0.3600E+02
   5.970  0.0000E+00  0.3600E+02
   5.980  0.0000E+00  0.3600E+02
   5.990  0.0000E+00  0.3600E+02
   6.000  0.0000E+00  0.3600E+02
   6.010  0.0000E+00  0.3600E+02
   6.020  0.0000E+00  0.3600E+02
   6.030  0.0000E+00  0.3600E+02
   6.040  0.0000E+00  0.3600E+02
   6.050  0.0000E+00  0.3600E+02
   6.060  0.0000E+00  0.3600E+02
   6.070  0.0000E+00  0.3600E+02
   6.080  0.0000E+00  0.3600E+02
   6.090  0.0000E+00  0.3600E+02
   6.100  0.0000E+00  0.3600E+02
   6.110  0.0000E+00  0.3600E+02
   6.120  0.0000E+00  0.3600E+02
   6.130  0.0000E+00  0.3600E+02
   6.140  0.0000E+00  0.3600E+02
   6.150  0.0000E+00  0.3600E+02
   6.160  0.0000E+00  0.3600E+02
   6.170  0.0000E+00  0.3600E+02
   6.180  0.0000E+00  0.3600E+02
   6.190  0.0000E+00  0.3600E+02
   6.200  0.0000E+00  0.3600E+02
   6.210  0.0000E+00  0.3600E+02
   6.220  0.0000E+00  0.3600E+02
   6.230  0.0000E+00  0.3600E+02
   6.240  0.0000E+00  0.3600E+02
   6.250  0.0000E+00  0.3600E+02
   6.260  0.0000E+00  0.3600E+02
   6.270  0.0000E+00  0.3600E+02
   6.280  0.0000E+00  0.3600E+02
   6.290  0.0000E+00  0.3600E+02
   6.300  0.0000E+00  0.3600E+02
   6.310  0.0000E+00  0.3600E+02
   6.320  0.0000E+00  0.3600E+02
   6.330  0.0000E+00  0.3600E+02
   6.340  0.0000E+00  0.3600E+02
   6.350  0.0000E+00  0.3600E+02
   6.360  0.0000E+00  0.3600E+02
   6.370  0.0000E+00  0.3600E+02
   6.380  0.0000E+00  0.3600E+02
   6.390  0.0000E+00  0.3600E+02
   6.400  0.0000E+00  0.3600E+02
   6.410  0.0000E+00  0.3600E+02
   6.420  0.0000E+00  0.3600E+02
   6.430  0.0000E+00  0.3600E+02
   6.440  0.0000E+00  0.3600E+02
   6.450  0.0000E+00  0.3600E+02
   6.460  0.0000E+00  0.3600E+02
   6.470  0.0000E+00  0.3600E+02
   6.480  0.0000E+00  0.3600E+02
   6.490  0.0000E+00  0.3600E+02
   6.500  0.0000E+00  0.3600E+02
   6.510  0.0000E+00  0.3600E+02
   6.520  0.0000E+00  0.3600E+02
   6.530  0.0000E+00  0.3600E+02
   6.540  0.0000E+00  0.3600E+02
   6.550  0.0000E+00  0.3600E+02
   6.560  0.0000E+00  0.3600E+02
   6.570  0.0000E+00  0.3600E+02
   6.580  0.0000E+00  0.3600E+02
   6.590  0.0000E+00  0.3600E+02
   6.600  0.0000E+00  0.3600E+02
   6.610  0.0000E+00  0.3600E+02
   6.620  0.0000E+00  0.3600E+02
   6.630  0.0000E+00  0.3600E+02
   6.640  0.0000E+00  0.3600E+02
   6.650  0.0000E+00  0.3600E+02
   6.660  0.0000E+00  0.3600E+02
   6.670  0.0000E+00  0.3600E+02
   6.680  0.0000E+00  0.3600E+02
   6.690  0.0000E+00  0.3600E+02
   6.700  0.0000E+00  0.3600E+02
   6.710  0.0000E+00  0.3600E+02
   6.720  0.0000E+00  0.3600E+02
   6.730  0.1655E-02  0.3600E+02
   6.740  0.2511E-01  0.3600E+02
   6.750  0.4930E-01  0.3600E+02
   6.760  0.7701E-01  0.3600E+02
   6.770  0.1095E+00  0.3600E+02
   6.780  0.1342E+00  0.3600E+02
   6.790  0.1607E+00  0.3600E+02
   6.800  0.2557E+00  0.3601E+02
   6.810  0.2637E+00  0.3601E+02
   6.820  0.2785E+00  0.3601E+02
   6.830  0.2943E+00  0.3602E+02
   6.840  0.2698E+00  0.3602E+02
   6.850  0.2800E+00  0.3602E+02
   6.860  0.2876E+00  0.3602E+02
   6.870  0.2948E+00  0.3603E+02
   6.880  0.3015E+00  0.3603E+02
   6.890  0.3682E+00  0.3603E+02
   6.900  0.4227E+00  0.3604E+02
   6.910  0.4648E+00  0.3604E+02
   6.920  0.5229E+00  0.3605E+02
   6.930  0.5845E+00  0.3605E+02
   6.940  0.6366E+00  0.3606E+02
   6.950  0.7878E+00  0.3607E+02
   6.960  0.8654E+00  0.3607E+02
   6.970  0.9643E+00  0.3608E+02
   6.980  0.1028E+01  0.3609E+02
   6.990  0.1267E+01  0.3610E+02
   7.000  0.1359E+01  0.3612E+02
   7.010  0.1429E+01  0.3613E+02
   7.020  0.1467E+01  0.3615E+02
   7.030  0.1477E+01  0.3616E+02
   7.040  0.1522E+01  0.3618E+02
   7.050  0.1555E+01  0.3619E+02
   7.060  0.1562E+01  0.3621E+02
   7.070  0.1569E+01  0.3622E+02
   7.080  0.1596E+01  0.3624E+02
   7.090  0.1641E+01  0.3625E+02
   7.100  0.1677E+01  0.3627E+02
   7.110  0.1697E+01  0.3629E+02
   7.120  0.1720E+01  0.3631E+02
   7.130  0.1749E+01  0.3632E+02
   7.140  0.1807E+01  0.3634E+02
   7.150  0.1846E+01  0.3636E+02
   7.160  0.1895E+01  0.3638E+02
   7.170  0.1970E+01  0.3640E+02
   7.180  0.2062E+01  0.3642E+02
   7.190  0.2139E+01  0.3644E+02
   7.200  0.2252E+01  0.3646E+02
   7.210  0.2396E+01  0.3648E+02
   7.220  0.2573E+01  0.3651E+02
   7.230  0.2813E+01  0.3653E+02
   7.240  0.2886E+01  0.3656E+02
   7.250  0.2513E+01  0.3659E+02
   7.260  0.2491E+01  0.3662E+02
   7.270  0.2554E+01  0.3664E+02
   7.280  0.2461E+01  0.3667E+02
   7.290  0.2419E+01  0.3669E+02
   7.300  0.2383E+01  0.3672E+02
   7.310  0.2383E+01  0.3674E+02
   7.320  0.2452E+01  0.3676E+02
   7.330  0.2569E+01  0.3679E+02
   7.340  0.2597E+01  0.3682E+02
   7.350  0.2802E+01  0.3684E+02
   7.360  0.2999E+01  0.3687E+02
   7.370  0.2873E+01  0.3690E+02
   7.380  0.2821E+01  0.3693E+02
   7.390  0.2763E+01  0.3696E+02
   7.400  0.2745E+01  0.3699E+02
   7.410  0.2712E+01  0.3701E+02
   7.420  0.2689E+01  0.3704E+02
   7.430  0.2671E+01  0.3707E+02
   7.440  0.2618E+01  0.3709E+02
   7.450  0.2531E+01  0.3712E+02
   7.460  0.2444E+01  0.3714E+02
   7.470  0.2331E+01  0.3717E+02
   7.480  0.2213E+01  0.3719E+02
   7.490  0.2128E+01  0.3721E+02
   7.500  0.2065E+01  0.3723E+02
   7.510  0.2010E+01  0.3725E+02
   7.520  0.1958E+01  0.3727E+02
   7.530  0.1905E+01  0.3729E+02
   7.540  0.1853E+01  0.3731E+02
   7.550  0.1809E+01  0.3733E+02
   7.560  0.1772E+01  0.3735E+02
   7.570  0.1737E+01  0.3736E+02
   7.580  0.1704E+01  0.3738E+02
   7.590  0.1667E+01  0.3740E+02
   7.600  0.1638E+01  0.3742E+02
   7.610  0.1611E+01  0.3743E+02
   7.620  0.1587E+01  0.3745E+02
   7.630  0.1564E+01  0.3746E+02
   7.640  0.1544E+01  0.3748E+02
   7.650  0.1523E+01  0.3749E+02
   7.660  0.1498E+01  0.3751E+02
   7.670  0.1477E+01  0.3752E+02
   7.680  0.1456E+01  0.3754E+02
   7.690  0.1436E+01  0.3755E+02
   7.700  0.1415E+01  0.3757E+02
   7.710  0.1396E+01  0.3758E+02
   7.720  0.1377E+01  0.3760E+02
   7.730  0.1359E+01  0.3761E+02
   7.740  0.1342E+01  0.3762E+02
   7.750  0.1326E+01  0.3764E+02
   7.760  0.1311E+01  0.3765E+02
   7.770  0.1295E+01  0.3766E+02
   7.780  0.1279E+01  0.3767E+02
   7.790  0.1265E+01  0.3769E+02
   7.800  0.1252E+01  0.3770E+02
   7.810  0.1237E+01  0.3771E+02
   7.820  0.1227E+01  0.3772E+02
   7.830  0.1217E+01  0.3774E+02
   7.840  0.1207E+01  0.3775E+02
   7.850  0.1195E+01  0.3776E+02
   7.860  0.1183E+01  0.3777E+02
   7.870  0.1172E+01  0.3779E+02
   7.880  0.1158E+01  0.3780E+02
   7.890  0.1145E+01  0.3781E+02
   7.900  0.1132E+01  0.3782E+02
   7.910  0.1123E+01  0.3783E+02
   7.920  0.1113E+01  0.3784E+02
   7.930  0.1104E+01  0.3785E+02
   7.940  0.1094E+01  0.3786E+02
   7.950  0.1084E+01  0.3787E+02
   7.960  0.1074E+01  0.3789E+02
   7.970  0.1065E+01  0.3790E+02
   7.980  0.1056E+01  0.3791E+02
   7.990  0.1045E+01  0.3792E+02
   8.000  0.1037E+01  0.3793E+02
   8.010  0.1029E+01  0.3794E+02
   8.020  0.1024E+01  0.3795E+02
   8.030  0.1018E+01  0.3796E+02
   8.040  0.1012E+01  0.3797E+02
   8.050  0.1005E+01  0.3798E+02
   8.060  0.9980E+00  0.3799E+02
   8.070  0.9902E+00  0.3800E+02
   8.080  0.9814E+00  0.3801E+02
   8.090  0.9720E+00  0.3802E+02
   8.100  0.9629E+00  0.3803E+02
   8.110  0.9548E+00  0.3804E+02
   8.120  0.9475E+00  0.3805E+02
   8.130  0.9411E+00  0.3806E+02
   8.140  0.9352E+00  0.3807E+02
   8.150  0.9293E+00  0.3808E+02
   8.160  0.9239E+00  0.3808E+02
   8.170  0.9183E+00  0.3809E+02
   8.180  0.9127E+00  0.3810E+02
   8.190  0.9067E+00  0.3811E+02
   8.200  0.9006E+00  0.3812E+02
   8.210  0.8943E+00  0.3813E+02
   8.220  0.8879E+00  0.3814E+02
   8.230  0.8820E+00  0.3815E+02
   8.240  0.8775E+00  0.3816E+02
   8.250  0.8738E+00  0.3817E+02
   8.260  0.8702E+00  0.3817E+02
   8.270  0.8660E+00  0.3818E+02
   8.280  0.8612E+00  0.3819E+02
   8.290  0.8558E+00  0.3820E+02
   8.300  0.8502E+00  0.3821E+02
   8.310  0.8432E+00  0.3822E+02
   8.320  0.8350E+00  0.3823E+02
   8.330  0.8286E+00  0.3823E+02
   8.340  0.8229E+00  0.3824E+02
   8.350  0.8180E+00  0.3825E+02
   8.360  0.8136E+00  0.3826E+02
   8.370  0.8101E+00  0.3827E+02
   8.380  0.8074E+00  0.3827E+02
   8.390  0.8047E+00  0.3828E+02
   8.400  0.8034E+00  0.3829E+02
   8.410  0.8002E+00  0.3830E+02
   8.420  0.7967E+00  0.3831E+02
   8.430  0.7923E+00  0.3831E+02
   8.440  0.7864E+00  0.3832E+02
   8.450  0.7805E+00  0.3833E+02
   8.460  0.7755E+00  0.3834E+02
   8.470  0.7706E+00  0.3835E+02
   8.480  0.7657E+00  0.3835E+02
   8.490  0.7636E+00  0.3836E+02
   8.500  0.7613E+00  0.3837E+02
   8.510  0.7583E+00  0.3838E+02
   8.520  0.7544E+00  0.3838E+02
   8.530  0.7508E+00  0.3839E+02
   8.540  0.7465E+00  0.3840E+02
   8.550  0.7421E+00  0.3841E+02
   8.560  0.7397E+00  0.3841E+02
   8.570  0.7748E+00  0.3842E+02
   8.580  0.8336E+00  0.3843E+02
   8.590  0.8852E+00  0.3844E+02
   8.600  0.9369E+00  0.3845E+02
   8.610  0.9896E+00  0.3846E+02
   8.620  0.1038E+01  0.3847E+02
   8.630  0.1087E+01  0.3848E+02
   8.640  0.1136E+01  0.3849E+02
   8.650  0.1185E+01  0.3850E+02
   8.660  0.1234E+01  0.3851E+02
   8.670  0.1281E+01  0.3853E+02
   8.680  0.1328E+01  0.3854E+02
   8.690  0.1373E+01  0.3855E+02
   8.700  0.1544E+01  0.3857E+02
   8.710  0.1922E+01  0.3858E+02
   8.720  0.1826E+01  0.3860E+02
   8.730  0.1777E+01  0.3862E+02
   8.740  0.1752E+01  0.3864E+02
   8.750  0.1786E+01  0.3865E+02
   8.760  0.1781E+01  0.3867E+02
   8.770  0.1737E+01  0.3869E+02
   8.780  0.1757E+01  0.3871E+02
   8.790  0.1777E+01  0.3872E+02
   8.800  0.1769E+01  0.3874E+02
   8.810  0.1752E+01  0.3876E+02
   8.820  0.1751E+01  0.3878E+02
   8.830  0.1771E+01  0.3880E+02
   8.840  0.1758E+01  0.3881E+02
   8.850  0.1771E+01  0.3883E+02
   8.860  0.1771E+01  0.3885E+02
   8.870  0.1769E+01  0.3887E+02
   8.880  0.1976E+01  0.3888E+02
   8.890  0.2361E+01  0.3891E+02
   8.900  0.2293E+01  0.3893E+02
   8.910  0.2394E+01  0.3895E+02
   8.920  0.2541E+01  0.3898E+02
   8.930  0.2721E+01  0.3900E+02
   8.940  0.2858E+01  0.3903E+02
   8.950  0.3901E+01  0.3906E+02
   8.960  0.4324E+01  0.3910E+02
   8.970  0.4461E+01  0.3915E+02
   8.980  0.4816E+01  0.3920E+02
   8.990  0.4612E+01  0.3924E+02
   9.000  0.4495E+01  0.3929E+02
   9.010  0.4425E+01  0.3934E+02
   9.020  0.4100E+01  0.3938E+02
   9.030  0.3980E+01  0.3942E+02
   9.040  0.3849E+01  0.3946E+02
   9.050  0.3803E+01  0.3950E+02
   9.060  0.3794E+01  0.3953E+02
   9.070  0.3798E+01  0.3957E+02
   9.080  0.3793E+01  0.3961E+02
   9.090  0.3827E+01  0.3965E+02
   9.100  0.3800E+01  0.3969E+02
   9.110  0.3768E+01  0.3972E+02
   9.120  0.3775E+01  0.3976E+02
   9.130  0.3776E+01  0.3980E+02
   9.140  0.3878E+01  0.3984E+02
   9.150  0.3960E+01  0.3988E+02
   9.160  0.4226E+01  0.3992E+02
   9.170  0.4090E+01  0.3996E+02
   9.180  0.3860E+01  0.4000E+02
   9.190  0.3822E+01  0.4004E+02
   9.200  0.3804E+01  0.4008E+02
   9.210  0.3795E+01  0.4011E+02
   9.220  0.3741E+01  0.4015E+02
   9.230  0.3699E+01  0.4019E+02
   9.240  0.3679E+01  0.4023E+02
   9.250  0.3643E+01  0.4026E+02
   9.260  0.3594E+01  0.4030E+02
   9.270  0.3519E+01  0.4033E+02
   9.280  0.3459E+01  0.4037E+02
   9.290  0.3420E+01  0.4040E+02
   9.300  0.3381E+01  0.4044E+02
   9.310  0.3328E+01  0.4047E+02
   9.320  0.3306E+01  0.4050E+02
   9.330  0.3274E+01  0.4054E+02
   9.340  0.3280E+01  0.4057E+02
   9.350  0.3350E+01  0.4060E+02
   9.360  0.3367E+01  0.4064E+02
   9.370  0.3348E+01  0.4067E+02
   9.380  0.3359E+01  0.4070E+02
   9.390  0.3368E+01  0.4074E+02
   9.400  0.3349E+01  0.4077E+02
   9.410  0.3309E+01  0.4080E+02
   9.420  0.3318E+01  0.4084E+02
   9.430  0.3304E+01  0.4087E+02
   9.440  0.3299E+01  0.4090E+02
   9.450  0.3295E+01  0.4094E+02
   9.460  0.3304E+01  0.4097E+02
   9.470  0.3332E+01  0.4100E+02
   9.480  0.3343E+01  0.4104E+02
   9.490  0.3349E+01  0.4107E+02
   9.500  0.3378E+01  0.4110E+02
   9.510  0.3424E+01  0.4114E+02
   9.520  0.3463E+01  0.4117E+02
   9.530  0.3528E+01  0.4121E+02
   9.540  0.3612E+01  0.4124E+02
   9.550  0.3695E+01  0.4128E+02
   9.560  0.3795E+01  0.4132E+02
   9.570  0.3915E+01  0.4135E+02
   9.580  0.4529E+01  0.4140E+02
   9.590  0.5860E+01  0.4145E+02
   9.600  0.6587E+01  0.4151E+02
   9.610  0.6989E+01  0.4158E+02
   9.620  0.6555E+01  0.4165E+02
   9.630  0.5866E+01  0.4171E+02
   9.640  0.5471E+01  0.4177E+02
   9.650  0.5294E+01  0.4182E+02
   9.660  0.5205E+01  0.4187E+02
   9.670  0.5201E+01  0.4192E+02
   9.680  0.5289E+01  0.4198E+02
   9.690  0.5402E+01  0.4203E+02
   9.700  0.5424E+01  0.4208E+02
   9.710  0.5521E+01  0.4214E+02
   9.720  0.5285E+01  0.4219E+02
   9.730  0.5196E+01  0.4225E+02
   9.740  0.5146E+01  0.4230E+02
   9.750  0.5414E+01  0.4235E+02
   9.760  0.5447E+01  0.4240E+02
   9.770  0.5450E+01  0.4246E+02
   9.780  0.5506E+01  0.4251E+02
   9.790  0.5673E+01  0.4257E+02
   9.800  0.5563E+01  0.4263E+02
   9.810  0.5579E+01  0.4268E+02
   9.820  0.5643E+01  0.4274E+02
   9.830  0.5679E+01  0.4279E+02
   9.840  0.5573E+01  0.4285E+02
   9.850  0.5215E+01  0.4291E+02
   9.860  0.5188E+01  0.4296E+02
   9.870  0.4821E+01  0.4301E+02
   9.880  0.4765E+01  0.4306E+02
   9.890  0.4737E+01  0.4310E+02
   9.900  0.4803E+01  0.4315E+02
   9.910  0.4842E+01  0.4320E+02
   9.920  0.4812E+01  0.4325E+02
   9.930  0.4891E+01  0.4330E+02
   9.940  0.5000E+01  0.4335E+02
   9.950  0.5034E+01  0.4340E+02
   9.960  0.5079E+01  0.4345E+02
   9.970  0.5302E+01  0.4350E+02
   9.980  0.5331E+01  0.4355E+02
   9.990  0.5537E+01  0.4361E+02
  10.000  0.5626E+01  0.4366E+02
  10.010  0.5774E+01  0.4372E+02
  10.020  0.5964E+01  0.4378E+02
  10.030  0.6097E+01  0.4384E+02
  10.040  0.5975E+01  0.4390E+02
  10.050  0.5849E+01  0.4396E+02
  10.060  0.5465E+01  0.4401E+02
  10.070  0.4989E+01  0.4407E+02
  10.080  0.4687E+01  0.4411E+02
  10.090  0.4669E+01  0.4416E+02
  10.100  0.4660E+01  0.4421E+02
  10.110  0.4789E+01  0.4425E+02
  10.120  0.5215E+01  0.4430E+02
  10.130  0.5847E+01  0.4436E+02
  10.140  0.7441E+01  0.4443E+02
  10.150  0.4539E+01  0.4449E+02
  10.160  0.4383E+01  0.4453E+02
  10.170  0.4389E+01  0.4458E+02
  10.180  0.4285E+01  0.4462E+02
  10.190  0.4222E+01  0.4466E+02
  10.200  0.4207E+01  0.4471E+02
  10.210  0.4236E+01  0.4475E+02
  10.220  0.4397E+01  0.4479E+02
  10.230  0.4504E+01  0.4484E+02
  10.240  0.4644E+01  0.4488E+02
  10.250  0.4719E+01  0.4493E+02
  10.260  0.4722E+01  0.4498E+02
  10.270  0.4797E+01  0.4502E+02
  10.280  0.4782E+01  0.4507E+02
  10.290  0.4740E+01  0.4512E+02
  10.300  0.4788E+01  0.4517E+02
  10.310  0.4817E+01  0.4522E+02
  10.320  0.4828E+01  0.4526E+02
  10.330  0.4849E+01  0.4531E+02
  10.340  0.4887E+01  0.4536E+02
  10.350  0.4906E+01  0.4541E+02
  10.360  0.4930E+01  0.4546E+02
  10.370  0.4955E+01  0.4551E+02
  10.380  0.4976E+01  0.4556E+02
  10.390  0.4972E+01  0.4561E+02
  10.400  0.5044E+01  0.4566E+02
  10.410  0.5038E+01  0.4571E+02
  10.420  0.4997E+01  0.4576E+02
  10.430  0.4815E+01  0.4581E+02
  10.440  0.4738E+01  0.4586E+02
  10.450  0.4513E+01  0.4590E+02
  10.460  0.4556E+01  0.4595E+02
  10.470  0.4548E+01  0.4599E+02
  10.480  0.4513E+01  0.4604E+02
  10.490  0.4440E+01  0.4608E+02
  10.500  0.4465E+01  0.4613E+02
  10.510  0.4637E+01  0.4617E+02
  10.520  0.4443E+01  0.4622E+02
  10.530  0.4154E+01  0.4626E+02
  10.540  0.4068E+01  0.4630E+02
  10.550  0.3954E+01  0.4634E+02
  10.560  0.3812E+01  0.4638E+02
  10.570  0.3704E+01  0.4642E+02
  10.580  0.3633E+01  0.4646E+02
  10.590  0.3602E+01  0.4649E+02
  10.600  0.3579E+01  0.4653E+02
  10.610  0.3518E+01  0.4656E+02
  10.620  0.3464E+01  0.4660E+02
  10.630  0.3424E+01  0.4663E+02
  10.640  0.3400E+01  0.4667E+02
  10.650  0.3374E+01  0.4670E+02
  10.660  0.3335E+01  0.4674E+02
  10.670  0.3303E+01  0.4677E+02
  10.680  0.3286E+01  0.4680E+02
  10.690  0.3274E+01  0.4683E+02
  10.700  0.3261E+01  0.4687E+02
  10.710  0.3215E+01  0.4690E+02
  10.720  0.3186E+01  0.4693E+02
  10.730  0.3168E+01  0.4696E+02
  10.740  0.3159E+01  0.4700E+02
  10.750  0.3153E+01  0.4703E+02
  10.760  0.3181E+01  0.4706E+02
  10.770  0.3196E+01  0.4709E+02
  10.780  0.3151E+01  0.4712E+02
  10.790  0.3125E+01  0.4715E+02
  10.800  0.3103E+01  0.4718E+02
  10.810  0.3094E+01  0.4722E+02
  10.820  0.3086E+01  0.4725E+02
  10.830  0.3073E+01  0.4728E+02
  10.840  0.3064E+01  0.4731E+02
  10.850  0.3054E+01  0.4734E+02
  10.860  0.3047E+01  0.4737E+02
  10.870  0.3043E+01  0.4740E+02
  10.880  0.3043E+01  0.4743E+02
  10.890  0.3045E+01  0.4746E+02
  10.900  0.3052E+01  0.4749E+02
  10.910  0.3068E+01  0.4752E+02
  10.920  0.3103E+01  0.4755E+02
  10.930  0.3068E+01  0.4758E+02
  10.940  0.3063E+01  0.4761E+02
  10.950  0.3064E+01  0.4764E+02
  10.960  0.3069E+01  0.4768E+02
  10.970  0.3076E+01  0.4771E+02
  10.980  0.3081E+01  0.4774E+02
  10.990  0.3090E+01  0.4777E+02
  11.000  0.3094E+01  0.4780E+02
  11.010  0.3106E+01  0.4783E+02
  11.020  0.3128E+01  0.4786E+02
  11.030  0.3151E+01  0.4789E+02
  11.040  0.3171E+01  0.4792E+02
  11.050  0.3199E+01  0.4796E+02
  11.060  0.3237E+01  0.4799E+02
  11.070  0.3288E+01  0.4802E+02
  11.080  0.3332E+01  0.4805E+02
  11.090  0.3357E+01  0.4809E+02
  11.100  0.3403E+01  0.4812E+02
  11.110  0.3454E+01  0.4815E+02
  11.120  0.3515E+01  0.4819E+02
  11.130  0.3566E+01  0.4823E+02
  11.140  0.3605E+01  0.4826E+02
  11.150  0.3632E+01  0.4830E+02
  11.160  0.3647E+01  0.4833E+02
  11.170  0.3656E+01  0.4837E+02
  11.180  0.3652E+01  0.4841E+02
  11.190  0.3644E+01  0.4844E+02
  11.200  0.3577E+01  0.4848E+02
  11.210  0.3539E+01  0.4852E+02
  11.220  0.3513E+01  0.4855E+02
  11.230  0.3509E+01  0.4859E+02
  11.240  0.3511E+01  0.4862E+02
  11.250  0.3521E+01  0.4866E+02
  11.260  0.3590E+01  0.4869E+02
  11.270  0.3653E+01  0.4873E+02
  11.280  0.3703E+01  0.4876E+02
  11.290  0.3743E+01  0.4880E+02
  11.300  0.3751E+01  0.4884E+02
  11.310  0.3743E+01  0.4888E+02
  11.320  0.3760E+01  0.4891E+02
  11.330  0.3799E+01  0.4895E+02
  11.340  0.3812E+01  0.4899E+02
  11.350  0.3828E+01  0.4903E+02
  11.360  0.3864E+01  0.4907E+02
  11.370  0.3914E+01  0.4911E+02
  11.380  0.3975E+01  0.4914E+02
  11.390  0.4019E+01  0.4918E+02
  11.400  0.4049E+01  0.4923E+02
  11.410  0.3957E+01  0.4927E+02
  11.420  0.3947E+01  0.4930E+02
  11.430  0.3984E+01  0.4934E+02
  11.440  0.3965E+01  0.4938E+02
  11.450  0.3925E+01  0.4942E+02
  11.460  0.3893E+01  0.4946E+02
  11.470  0.3871E+01  0.4950E+02
  11.480  0.3855E+01  0.4954E+02
  11.490  0.3861E+01  0.4958E+02
  11.500  0.3887E+01  0.4962E+02
  11.510  0.3915E+01  0.4966E+02
  11.520  0.3936E+01  0.4970E+02
  11.530  0.3956E+01  0.4974E+02
  11.540  0.4011E+01  0.4978E+02
  11.550  0.4048E+01  0.4982E+02
  11.560  0.4050E+01  0.4986E+02
  11.570  0.4070E+01  0.4990E+02
  11.580  0.4104E+01  0.4994E+02
  11.590  0.4172E+01  0.4998E+02
  11.600  0.4174E+01  0.5002E+02
  11.610  0.4140E+01  0.5006E+02
  11.620  0.4132E+01  0.5010E+02
  11.630  0.4131E+01  0.5015E+02
  11.640  0.4137E+01  0.5019E+02
  11.650  0.4177E+01  0.5023E+02
  11.660  0.4128E+01  0.5027E+02
  11.670  0.4095E+01  0.5031E+02
  11.680  0.4076E+01  0.5035E+02
  11.690  0.4069E+01  0.5039E+02
  11.700  0.4067E+01  0.5043E+02
  11.710  0.4068E+01  0.5047E+02
  11.720  0.4067E+01  0.5051E+02
  11.730  0.4096E+01  0.5056E+02
  11.740  0.4167E+01  0.5060E+02
  11.750  0.4193E+01  0.5064E+02
  11.760  0.4164E+01  0.5068E+02
  11.770  0.4156E+01  0.5072E+02
  11.780  0.4159E+01  0.5076E+02
  11.790  0.4197E+01  0.5081E+02
  11.800  0.4189E+01  0.5085E+02
  11.810  0.4180E+01  0.5089E+02
  11.820  0.4188E+01  0.5093E+02
  11.830  0.4183E+01  0.5097E+02
  11.840  0.4199E+01  0.5101E+02
  11.850  0.4241E+01  0.5106E+02
  11.860  0.4257E+01  0.5110E+02
  11.870  0.4274E+01  0.5114E+02
  11.880  0.4278E+01  0.5119E+02
  11.890  0.4334E+01  0.5123E+02
  11.900  0.4396E+01  0.5127E+02
  11.910  0.4493E+01  0.5132E+02
  11.920  0.4595E+01  0.5136E+02
  11.930  0.4693E+01  0.5141E+02
  11.940  0.4804E+01  0.5146E+02
  11.950  0.4873E+01  0.5150E+02
  11.960  0.4914E+01  0.5155E+02
  11.970  0.4973E+01  0.5160E+02
  11.980  0.5033E+01  0.5165E+02
  11.990  0.4940E+01  0.5170E+02
  12.000  0.4743E+01  0.5175E+02
  12.010  0.4669E+01  0.5180E+02
  12.020  0.4831E+01  0.5184E+02
  12.030  0.4696E+01  0.5189E+02
  12.040  0.4835E+01  0.5194E+02
  12.050  0.4997E+01  0.5199E+02
  12.060  0.4980E+01  0.5204E+02
  12.070  0.5018E+01  0.5209E+02
  12.080  0.5176E+01  0.5214E+02
  12.090  0.5005E+01  0.5219E+02
  12.100  0.4854E+01  0.5224E+02
  12.110  0.4767E+01  0.5229E+02
  12.120  0.4691E+01  0.5234E+02
  12.130  0.4592E+01  0.5238E+02
  12.140  0.4523E+01  0.5243E+02
  12.150  0.4529E+01  0.5247E+02
  12.160  0.4761E+01  0.5252E+02
  12.170  0.4573E+01  0.5257E+02
  12.180  0.4526E+01  0.5261E+02
  12.190  0.4518E+01  0.5266E+02
  12.200  0.4510E+01  0.5270E+02
  12.210  0.4547E+01  0.5275E+02
  12.220  0.4513E+01  0.5279E+02
  12.230  0.4563E+01  0.5284E+02
  12.240  0.4670E+01  0.5288E+02
  12.250  0.4926E+01  0.5293E+02
  12.260  0.5066E+01  0.5298E+02
  12.270  0.5109E+01  0.5303E+02
  12.280  0.5256E+01  0.5308E+02
  12.290  0.5599E+01  0.5314E+02
  12.300  0.5665E+01  0.5319E+02
  12.310  0.5483E+01  0.5325E+02
  12.320  0.5508E+01  0.5330E+02
  12.330  0.5536E+01  0.5336E+02
  12.340  0.5401E+01  0.5341E+02
  12.350  0.5335E+01  0.5347E+02
  12.360  0.5369E+01  0.5352E+02
  12.370  0.5456E+01  0.5358E+02
  12.380  0.5623E+01  0.5363E+02
  12.390  0.5876E+01  0.5369E+02
  12.400  0.6046E+01  0.5375E+02
  12.410  0.6133E+01  0.5381E+02
  12.420  0.6160E+01  0.5387E+02
  12.430  0.6227E+01  0.5393E+02
  12.440  0.6245E+01  0.5399E+02
  12.450  0.6370E+01  0.5406E+02
  12.460  0.6292E+01  0.5412E+02
  12.470  0.6248E+01  0.5418E+02
  12.480  0.6332E+01  0.5425E+02
  12.490  0.6396E+01  0.5431E+02
  12.500  0.6399E+01  0.5437E+02
  12.510  0.6656E+01  0.5444E+02
  12.520  0.6926E+01  0.5451E+02
  12.530  0.6984E+01  0.5458E+02
  12.540  0.7203E+01  0.5465E+02
  12.550  0.7669E+01  0.5472E+02
  12.560  0.7839E+01  0.5480E+02
  12.570  0.7794E+01  0.5488E+02
  12.580  0.7586E+01  0.5495E+02
  12.590  0.7362E+01  0.5503E+02
  12.600  0.6998E+01  0.5510E+02
  12.610  0.6891E+01  0.5517E+02
  12.620  0.6878E+01  0.5524E+02
  12.630  0.6795E+01  0.5531E+02
  12.640  0.6863E+01  0.5537E+02
  12.650  0.6852E+01  0.5544E+02
  12.660  0.6664E+01  0.5551E+02
  12.670  0.6570E+01  0.5558E+02
  12.680  0.6379E+01  0.5564E+02
  12.690  0.6338E+01  0.5570E+02
  12.700  0.5688E+01  0.5576E+02
  12.710  0.5932E+01  0.5582E+02
  12.720  0.5999E+01  0.5588E+02
  12.730  0.5924E+01  0.5594E+02
  12.740  0.5887E+01  0.5600E+02
  12.750  0.6066E+01  0.5606E+02
  12.760  0.6322E+01  0.5612E+02
  12.770  0.6437E+01  0.5619E+02
  12.780  0.6304E+01  0.5625E+02
  12.790  0.6068E+01  0.5631E+02
  12.800  0.5899E+01  0.5637E+02
  12.810  0.5825E+01  0.5643E+02
  12.820  0.5890E+01  0.5649E+02
  12.830  0.6012E+01  0.5655E+02
  12.840  0.6151E+01  0.5661E+02
  12.850  0.6353E+01  0.5667E+02
  12.860  0.6627E+01  0.5674E+02
  12.870  0.6594E+01  0.5680E+02
  12.880  0.6769E+01  0.5687E+02
  12.890  0.6807E+01  0.5694E+02
  12.900  0.6834E+01  0.5701E+02
  12.910  0.6901E+01  0.5707E+02
  12.920  0.7149E+01  0.5714E+02
  12.930  0.7124E+01  0.5722E+02
  12.940  0.7046E+01  0.5729E+02
  12.950  0.7415E+01  0.5736E+02
  12.960  0.6846E+01  0.5743E+02
  12.970  0.6876E+01  0.5750E+02
  12.980  0.7334E+01  0.5757E+02
  12.990  0.6914E+01  0.5764E+02
  13.000  0.6133E+01  0.5770E+02
  13.010  0.5763E+01  0.5776E+02
  13.020  0.5496E+01  0.5782E+02
  13.030  0.5007E+01  0.5787E+02
  13.040  0.4815E+01  0.5792E+02
  13.050  0.4654E+01  0.5797E+02
  13.060  0.4529E+01  0.5801E+02
  13.070  0.4445E+01  0.5806E+02
  13.080  0.4351E+01  0.5810E+02
  13.090  0.4315E+01  0.5815E+02
  13.100  0.4241E+01  0.5819E+02
  13.110  0.4216E+01  0.5823E+02
  13.120  0.4270E+01  0.5827E+02
  13.130  0.4270E+01  0.5832E+02
  13.140  0.4378E+01  0.5836E+02
  13.150  0.4386E+01  0.5840E+02
  13.160  0.4408E+01  0.5845E+02
  13.170  0.4428E+01  0.5849E+02
  13.180  0.4454E+01  0.5854E+02
  13.190  0.4372E+01  0.5858E+02
  13.200  0.4560E+01  0.5862E+02
  13.210  0.4416E+01  0.5867E+02
  13.220  0.4583E+01  0.5871E+02
  13.230  0.4781E+01  0.5876E+02
  13.240  0.4796E+01  0.5881E+02
  13.250  0.4958E+01  0.5886E+02
  13.260  0.5486E+01  0.5891E+02
  13.270  0.5479E+01  0.5896E+02
  13.280  0.5701E+01  0.5902E+02
  13.290  0.5687E+01  0.5908E+02
  13.300  0.5636E+01  0.5913E+02
  13.310  0.5748E+01  0.5919E+02
  13.320  0.5706E+01  0.5925E+02
  13.330  0.5423E+01  0.5930E+02
  13.340  0.5485E+01  0.5936E+02
  13.350  0.6227E+01  0.5942E+02
  13.360  0.5805E+01  0.5948E+02
  13.370  0.5629E+01  0.5953E+02
  13.380  0.5569E+01  0.5959E+02
  13.390  0.5443E+01  0.5964E+02
  13.400  0.5393E+01  0.5970E+02
  13.410  0.5290E+01  0.5975E+02
  13.420  0.5230E+01  0.5980E+02
  13.430  0.5198E+01  0.5986E+02
  13.440  0.5165E+01  0.5991E+02
  13.450  0.5144E+01  0.5996E+02
  13.460  0.5189E+01  0.6001E+02
  13.470  0.5370E+01  0.6006E+02
  13.480  0.5242E+01  0.6012E+02
  13.490  0.5327E+01  0.6017E+02
  13.500  0.5520E+01  0.6022E+02
  13.510  0.5967E+01  0.6028E+02
  13.520  0.5533E+01  0.6034E+02
  13.530  0.5250E+01  0.6039E+02
  13.540  0.5130E+01  0.6044E+02
  13.550  0.5120E+01  0.6050E+02
  13.560  0.5094E+01  0.6055E+02
  13.570  0.5094E+01  0.6060E+02
  13.580  0.5199E+01  0.6065E+02
  13.590  0.5331E+01  0.6070E+02
  13.600  0.5428E+01  0.6076E+02
  13.610  0.5528E+01  0.6081E+02
  13.620  0.5616E+01  0.6087E+02
  13.630  0.5757E+01  0.6092E+02
  13.640  0.5907E+01  0.6098E+02
  13.650  0.6231E+01  0.6104E+02
  13.660  0.6155E+01  0.6110E+02
  13.670  0.6277E+01  0.6117E+02
  13.680  0.6157E+01  0.6123E+02
  13.690  0.6103E+01  0.6129E+02
  13.700  0.6225E+01  0.6135E+02
  13.710  0.6153E+01  0.6141E+02
  13.720  0.6298E+01  0.6147E+02
  13.730  0.5823E+01  0.6153E+02
  13.740  0.5834E+01  0.6159E+02
  13.750  0.5885E+01  0.6165E+02
  13.760  0.5993E+01  0.6171E+02
  13.770  0.6053E+01  0.6177E+02
  13.780  0.6189E+01  0.6183E+02
  13.790  0.6017E+01  0.6189E+02
  13.800  0.5886E+01  0.6195E+02
  13.810  0.5773E+01  0.6201E+02
  13.820  0.5802E+01  0.6207E+02
  13.830  0.5780E+01  0.6213E+02
  13.840  0.5893E+01  0.6218E+02
  13.850  0.5849E+01  0.6224E+02
  13.860  0.5893E+01  0.6230E+02
  13.870  0.5933E+01  0.6236E+02
  13.880  0.6115E+01  0.6242E+02
  13.890  0.6456E+01  0.6248E+02
  13.900  0.6404E+01  0.6255E+02
  13.910  0.6336E+01  0.6261E+02
  13.920  0.6333E+01  0.6267E+02
  13.930  0.6376E+01  0.6274E+02
  13.940  0.6378E+01  0.6280E+02
  13.950  0.6197E+01  0.6286E+02
  13.960  0.6170E+01  0.6293E+02
  13.970  0.6169E+01  0.6299E+02
  13.980  0.6225E+01  0.6305E+02
  13.990  0.6479E+01  0.6311E+02
  14.000  0.6412E+01  0.6318E+02
  14.010  0.6468E+01  0.6324E+02
  14.020  0.6481E+01  0.6331E+02
  14.030  0.6708E+01  0.6337E+02
  14.040  0.6266E+01  0.6344E+02
  14.050  0.6027E+01  0.6350E+02
  14.060  0.5896E+01  0.6356E+02
  14.070  0.5768E+01  0.6362E+02
  14.080  0.5708E+01  0.6367E+02
  14.090  0.5648E+01  0.6373E+02
  14.100  0.5614E+01  0.6379E+02
  14.110  0.5613E+01  0.6384E+02
  14.120  0.5764E+01  0.6390E+02
  14.130  0.5723E+01  0.6396E+02
  14.140  0.5683E+01  0.6401E+02
  14.150  0.5702E+01  0.6407E+02
  14.160  0.5770E+01  0.6413E+02
  14.170  0.5826E+01  0.6419E+02
  14.180  0.5925E+01  0.6425E+02
  14.190  0.6024E+01  0.6431E+02
  14.200  0.6176E+01  0.6437E+02
  14.210  0.6363E+01  0.6443E+02
  14.220  0.6663E+01  0.6449E+02
  14.230  0.6842E+01  0.6456E+02
  14.240  0.7174E+01  0.6463E+02
  14.250  0.7367E+01  0.6470E+02
  14.260  0.7429E+01  0.6478E+02
  14.270  0.6514E+01  0.6485E+02
  14.280  0.6373E+01  0.6491E+02
  14.290  0.6403E+01  0.6498E+02
  14.300  0.6311E+01  0.6504E+02
  14.310  0.6394E+01  0.6510E+02
  14.320  0.6709E+01  0.6517E+02
  14.330  0.6913E+01  0.6524E+02
  14.340  0.7102E+01  0.6531E+02
  14.350  0.7621E+01  0.6538E+02
  14.360  0.7380E+01  0.6546E+02
  14.370  0.7191E+01  0.6553E+02
  14.380  0.7142E+01  0.6560E+02
  14.390  0.6954E+01  0.6567E+02
  14.400  0.6840E+01  0.6574E+02
  14.410  0.6752E+01  0.6581E+02
  14.420  0.6733E+01  0.6588E+02
  14.430  0.6713E+01  0.6594E+02
  14.440  0.6672E+01  0.6601E+02
  14.450  0.6644E+01  0.6608E+02
  14.460  0.6712E+01  0.6614E+02
  14.470  0.6762E+01  0.6621E+02
  14.480  0.6759E+01  0.6628E+02
  14.490  0.6863E+01  0.6635E+02
  14.500  0.6773E+01  0.6642E+02
  14.510  0.6758E+01  0.6648E+02
  14.520  0.6523E+01  0.6655E+02
  14.530  0.6425E+01  0.6662E+02
  14.540  0.6382E+01  0.6668E+02
  14.550  0.6278E+01  0.6674E+02
  14.560  0.6240E+01  0.6680E+02
  14.570  0.6076E+01  0.6687E+02
  14.580  0.5997E+01  0.6693E+02
  14.590  0.5949E+01  0.6699E+02
  14.600  0.5845E+01  0.6705E+02
  14.610  0.5713E+01  0.6710E+02
  14.620  0.5595E+01  0.6716E+02
  14.630  0.5472E+01  0.6722E+02
  14.640  0.5294E+01  0.6727E+02
  14.650  0.5224E+01  0.6732E+02
  14.660  0.5227E+01  0.6737E+02
  14.670  0.5383E+01  0.6743E+02
  14.680  0.5485E+01  0.6748E+02
  14.690  0.5476E+01  0.6754E+02
  14.700  0.5753E+01  0.6759E+02
  14.710  0.5549E+01  0.6765E+02
  14.720  0.5171E+01  0.6770E+02
  14.730  0.5100E+01  0.6775E+02
  14.740  0.5013E+01  0.6781E+02
  14.750  0.4934E+01  0.6786E+02
  14.760  0.4825E+01  0.6790E+02
  14.770  0.4702E+01  0.6795E+02
  14.780  0.4749E+01  0.6800E+02
  14.790  0.4600E+01  0.6805E+02
  14.800  0.4524E+01  0.6809E+02
  14.810  0.4460E+01  0.6814E+02
  14.820  0.4454E+01  0.6818E+02
  14.830  0.4264E+01  0.6822E+02
  14.840  0.4170E+01  0.6827E+02
  14.850  0.4168E+01  0.6831E+02
  14.860  0.4162E+01  0.6835E+02
  14.870  0.4102E+01  0.6839E+02
  14.880  0.4126E+01  0.6843E+02
  14.890  0.4154E+01  0.6847E+02
  14.900  0.4148E+01  0.6851E+02
  14.910  0.4285E+01  0.6856E+02
  14.920  0.4298E+01  0.6860E+02
  14.930  0.4298E+01  0.6864E+02
  14.940  0.4144E+01  0.6869E+02
  14.950  0.4085E+01  0.6873E+02
  14.960  0.4137E+01  0.6877E+02
  14.970  0.3972E+01  0.6881E+02
  14.980  0.3945E+01  0.6885E+02
  14.990  0.3901E+01  0.6889E+02
  15.000  0.3816E+01  0.6893E+02
