#  E (eV)   dos(E)     Int dos(E) EFermi =    5.500 eV
 -15.000  0.0000E+00  0.0000E+00
 -14.990  0.0000E+00  0.0000E+00
 -14.980  0.0000E+00  0.0000E+00
 -14.970  0.0000E+00  0.0000E+00
 -14.960  0.0000E+00  0.0000E+00
 -14.950  0.0000E+00  0.0000E+00
 -14.940  0.0000E+00  0.0000E+00
 -14.930  0.0000E+00  0.0000E+00
 -14.920  0.0000E+00  0.0000E+00
 -14.910  0.0000E+00  0.0000E+00
 -14.900  0.0000E+00  0.0000E+00
 -14.890  0.0000E+00  0.0000E+00
 -14.880  0.0000E+00  0.0000E+00
 -14.870  0.0000E+00  0.0000E+00
 -14.860  0.0000E+00  0.0000E+00
 -14.850  0.0000E+00  0.0000E+00
 -14.840  0.0000E+00  0.0000E+00
 -14.830  0.0000E+00  0.0000E+00
 -14.820  0.0000E+00  0.0000E+00
 -14.810  0.0000E+00  0.0000E+00
 -14.800  0.0000E+00  0.0000E+00
 -14.790  0.0000E+00  0.0000E+00
 -14.780  0.0000E+00  0.0000E+00
 -14.770  0.0000E+00  0.0000E+00
 -14.760  0.0000E+00  0.0000E+00
 -14.750  0.0000E+00  0.0000E+00
 -14.740  0.0000E+00  0.0000E+00
 -14.730  0.0000E+00  0.0000E+00
 -14.720  0.0000E+00  0.0000E+00
 -14.710  0.0000E+00  0.0000E+00
 -14.700  0.0000E+00  0.0000E+00
 -14.690  0.0000E+00  0.0000E+00
 -14.680  0.0000E+00  0.0000E+00
 -14.670  0.0000E+00  0.0000E+00
 -14.660  0.0000E+00  0.0000E+00
 -14.650  0.0000E+00  0.0000E+00
 -14.640  0.0000E+00  0.0000E+00
 -14.630  0.0000E+00  0.0000E+00
 -14.620  0.0000E+00  0.0000E+00
 -14.610  0.0000E+00  0.0000E+00
 -14.600  0.0000E+00  0.0000E+00
 -14.590  0.0000E+00  0.0000E+00
 -14.580  0.0000E+00  0.0000E+00
 -14.570  0.0000E+00  0.0000E+00
 -14.560  0.0000E+00  0.0000E+00
 -14.550  0.0000E+00  0.0000E+00
 -14.540  0.0000E+00  0.0000E+00
 -14.530  0.0000E+00  0.0000E+00
 -14.520  0.0000E+00  0.0000E+00
 -14.510  0.0000E+00  0.0000E+00
 -14.500  0.0000E+00  0.0000E+00
 -14.490  0.0000E+00  0.0000E+00
 -14.480  0.0000E+00  0.0000E+00
 -14.470  0.0000E+00  0.0000E+00
 -14.460  0.0000E+00  0.0000E+00
 -14.450  0.0000E+00  0.0000E+00
 -14.440  0.0000E+00  0.0000E+00
 -14.430  0.0000E+00  0.0000E+00
 -14.420  0.0000E+00  0.0000E+00
 -14.410  0.0000E+00  0.0000E+00
 -14.400  0.0000E+00  0.0000E+00
 -14.390  0.0000E+00  0.0000E+00
 -14.380  0.0000E+00  0.0000E+00
 -14.370  0.0000E+00  0.0000E+00
 -14.360  0.0000E+00  0.0000E+00
 -14.350  0.0000E+00  0.0000E+00
 -14.340  0.0000E+00  0.0000E+00
 -14.330  0.0000E+00  0.0000E+00
 -14.320  0.0000E+00  0.0000E+00
 -14.310  0.0000E+00  0.0000E+00
 -14.300  0.0000E+00  0.0000E+00
 -14.290  0.0000E+00  0.0000E+00
 -14.280  0.0000E+00  0.0000E+00
 -14.270  0.0000E+00  0.0000E+00
 -14.260  0.0000E+00  0.0000E+00
 -14.250  0.0000E+00  0.0000E+00
 -14.240  0.0000E+00  0.0000E+00
 -14.230  0.0000E+00  0.0000E+00
 -14.220  0.0000E+00  0.0000E+00
 -14.210  0.0000E+00  0.0000E+00
 -14.200  0.0000E+00  0.0000E+00
 -14.190  0.0000E+00  0.0000E+00
 -14.180  0.0000E+00  0.0000E+00
 -14.170  0.0000E+00  0.0000E+00
 -14.160  0.1732E+00  0.1080E-03
 -14.150  0.1321E+01  0.1133E-01
 -14.140  0.1375E+01  0.2529E-01
 -14.130  0.1392E+01  0.3954E-01
 -14.120  0.1416E+01  0.5400E-01
 -14.110  0.1486E+01  0.6835E-01
 -14.100  0.1443E+01  0.8301E-01
 -14.090  0.2897E+01  0.1036E+00
 -14.080  0.2923E+01  0.1329E+00
 -14.070  0.3023E+01  0.1629E+00
 -14.060  0.3036E+01  0.1929E+00
 -14.050  0.3095E+01  0.2233E+00
 -14.040  0.3059E+01  0.2542E+00
 -14.030  0.3174E+01  0.2853E+00
 -14.020  0.3146E+01  0.3170E+00
 -14.010  0.3229E+01  0.3488E+00
 -14.000  0.3253E+01  0.3812E+00
 -13.990  0.3315E+01  0.4139E+00
 -13.980  0.3318E+01  0.4470E+00
 -13.970  0.3397E+01  0.4807E+00
 -13.960  0.3416E+01  0.5148E+00
 -13.950  0.3469E+01  0.5491E+00
 -13.940  0.3552E+01  0.5843E+00
 -13.930  0.3562E+01  0.6198E+00
 -13.920  0.3640E+01  0.6557E+00
 -13.910  0.3696E+01  0.6925E+00
 -13.900  0.3730E+01  0.7296E+00
 -13.890  0.3826E+01  0.7673E+00
 -13.880  0.3870E+01  0.8059E+00
 -13.870  0.3935E+01  0.8449E+00
 -13.860  0.4024E+01  0.8846E+00
 -13.850  0.4090E+01  0.9253E+00
 -13.840  0.4165E+01  0.9665E+00
 -13.830  0.4252E+01  0.1009E+01
 -13.820  0.4348E+01  0.1052E+01
 -13.810  0.4417E+01  0.1095E+01
 -13.800  0.5400E+01  0.1142E+01
 -13.790  0.6215E+01  0.1203E+01
 -13.780  0.6357E+01  0.1266E+01
 -13.770  0.6512E+01  0.1330E+01
 -13.760  0.6614E+01  0.1395E+01
 -13.750  0.6747E+01  0.1462E+01
 -13.740  0.6976E+01  0.1531E+01
 -13.730  0.7100E+01  0.1601E+01
 -13.720  0.7543E+01  0.1673E+01
 -13.710  0.9135E+01  0.1761E+01
 -13.700  0.9445E+01  0.1854E+01
 -13.690  0.9733E+01  0.1949E+01
 -13.680  0.9969E+01  0.2047E+01
 -13.670  0.1024E+02  0.2149E+01
 -13.660  0.1072E+02  0.2254E+01
 -13.650  0.1106E+02  0.2362E+01
 -13.640  0.1158E+02  0.2475E+01
 -13.630  0.1210E+02  0.2594E+01
 -13.620  0.1279E+02  0.2718E+01
 -13.610  0.1363E+02  0.2850E+01
 -13.600  0.1464E+02  0.2991E+01
 -13.590  0.1620E+02  0.3145E+01
 -13.580  0.1966E+02  0.3321E+01
 -13.570  0.1905E+02  0.3530E+01
 -13.560  0.1827E+02  0.3714E+01
 -13.550  0.1835E+02  0.3896E+01
 -13.540  0.2071E+02  0.4090E+01
 -13.530  0.1964E+02  0.4311E+01
 -13.520  0.1767E+02  0.4495E+01
 -13.510  0.1602E+02  0.4663E+01
 -13.500  0.1096E+02  0.4810E+01
 -13.490  0.1068E+02  0.4918E+01
 -13.480  0.1034E+02  0.5024E+01
 -13.470  0.9962E+01  0.5128E+01
 -13.460  0.5378E+01  0.5202E+01
 -13.450  0.5514E+01  0.5256E+01
 -13.440  0.5689E+01  0.5312E+01
 -13.430  0.5902E+01  0.5370E+01
 -13.420  0.6086E+01  0.5430E+01
 -13.410  0.6302E+01  0.5492E+01
 -13.400  0.6565E+01  0.5556E+01
 -13.390  0.6852E+01  0.5623E+01
 -13.380  0.7156E+01  0.5693E+01
 -13.370  0.7521E+01  0.5766E+01
 -13.360  0.7916E+01  0.5844E+01
 -13.350  0.8396E+01  0.5925E+01
 -13.340  0.8973E+01  0.6012E+01
 -13.330  0.9726E+01  0.6105E+01
 -13.320  0.1069E+02  0.6207E+01
 -13.310  0.1208E+02  0.6320E+01
 -13.300  0.1482E+02  0.6452E+01
 -13.290  0.1594E+02  0.6628E+01
 -13.280  0.1385E+02  0.6773E+01
 -13.270  0.1287E+02  0.6906E+01
 -13.260  0.1288E+02  0.7035E+01
 -13.250  0.1319E+02  0.7166E+01
 -13.240  0.1460E+02  0.7303E+01
 -13.230  0.1635E+02  0.7456E+01
 -13.220  0.1091E+02  0.7591E+01
 -13.210  0.8313E+01  0.7684E+01
 -13.200  0.7587E+01  0.7763E+01
 -13.190  0.6868E+01  0.7833E+01
 -13.180  0.6290E+01  0.7898E+01
 -13.170  0.5864E+01  0.7958E+01
 -13.160  0.0000E+00  0.8000E+01
 -13.150  0.0000E+00  0.8000E+01
 -13.140  0.0000E+00  0.8000E+01
 -13.130  0.0000E+00  0.8000E+01
 -13.120  0.0000E+00  0.8000E+01
 -13.110  0.0000E+00  0.8000E+01
 -13.100  0.0000E+00  0.8000E+01
 -13.090  0.0000E+00  0.8000E+01
 -13.080  0.0000E+00  0.8000E+01
 -13.070  0.0000E+00  0.8000E+01
 -13.060  0.0000E+00  0.8000E+01
 -13.050  0.0000E+00  0.8000E+01
 -13.040  0.0000E+00  0.8000E+01
 -13.030  0.0000E+00  0.8000E+01
 -13.020  0.0000E+00  0.8000E+01
 -13.010  0.0000E+00  0.8000E+01
 -13.000  0.0000E+00  0.8000E+01
 -12.990  0.0000E+00  0.8000E+01
 -12.980  0.0000E+00  0.8000E+01
 -12.970  0.0000E+00  0.8000E+01
 -12.960  0.0000E+00  0.8000E+01
 -12.950  0.0000E+00  0.8000E+01
 -12.940  0.0000E+00  0.8000E+01
 -12.930  0.0000E+00  0.8000E+01
 -12.920  0.0000E+00  0.8000E+01
 -12.910  0.0000E+00  0.8000E+01
 -12.900  0.0000E+00  0.8000E+01
 -12.890  0.0000E+00  0.8000E+01
 -12.880  0.0000E+00  0.8000E+01
 -12.870  0.0000E+00  0.8000E+01
 -12.860  0.0000E+00  0.8000E+01
 -12.850  0.0000E+00  0.8000E+01
 -12.840  0.0000E+00  0.8000E+01
 -12.830  0.0000E+00  0.8000E+01
 -12.820  0.0000E+00  0.8000E+01
 -12.810  0.0000E+00  0.8000E+01
 -12.800  0.0000E+00  0.8000E+01
 -12.790  0.0000E+00  0.8000E+01
 -12.780  0.0000E+00  0.8000E+01
 -12.770  0.0000E+00  0.8000E+01
 -12.760  0.0000E+00  0.8000E+01
 -12.750  0.0000E+00  0.8000E+01
 -12.740  0.0000E+00  0.8000E+01
 -12.730  0.0000E+00  0.8000E+01
 -12.720  0.0000E+00  0.8000E+01
 -12.710  0.0000E+00  0.8000E+01
 -12.700  0.0000E+00  0.8000E+01
 -12.690  0.0000E+00  0.8000E+01
 -12.680  0.0000E+00  0.8000E+01
 -12.670  0.0000E+00  0.8000E+01
 -12.660  0.0000E+00  0.8000E+01
 -12.650  0.0000E+00  0.8000E+01
 -12.640  0.0000E+00  0.8000E+01
 -12.630  0.0000E+00  0.8000E+01
 -12.620  0.0000E+00  0.8000E+01
 -12.610  0.0000E+00  0.8000E+01
 -12.600  0.0000E+00  0.8000E+01
 -12.590  0.0000E+00  0.8000E+01
 -12.580  0.0000E+00  0.8000E+01
 -12.570  0.0000E+00  0.8000E+01
 -12.560  0.0000E+00  0.8000E+01
 -12.550  0.0000E+00  0.8000E+01
 -12.540  0.0000E+00  0.8000E+01
 -12.530  0.0000E+00  0.8000E+01
 -12.520  0.0000E+00  0.8000E+01
 -12.510  0.0000E+00  0.8000E+01
 -12.500  0.0000E+00  0.8000E+01
 -12.490  0.0000E+00  0.8000E+01
 -12.480  0.0000E+00  0.8000E+01
 -12.470  0.0000E+00  0.8000E+01
 -12.460  0.0000E+00  0.8000E+01
 -12.450  0.0000E+00  0.8000E+01
 -12.440  0.0000E+00  0.8000E+01
 -12.430  0.0000E+00  0.8000E+01
 -12.420  0.0000E+00  0.8000E+01
 -12.410  0.0000E+00  0.8000E+01
 -12.400  0.0000E+00  0.8000E+01
 -12.390  0.0000E+00  0.8000E+01
 -12.380  0.0000E+00  0.8000E+01
 -12.370  0.0000E+00  0.8000E+01
 -12.360  0.0000E+00  0.8000E+01
 -12.350  0.0000E+00  0.8000E+01
 -12.340  0.0000E+00  0.8000E+01
 -12.330  0.0000E+00  0.8000E+01
 -12.320  0.0000E+00  0.8000E+01
 -12.310  0.0000E+00  0.8000E+01
 -12.300  0.0000E+00  0.8000E+01
 -12.290  0.0000E+00  0.8000E+01
 -12.280  0.0000E+00  0.8000E+01
 -12.270  0.0000E+00  0.8000E+01
 -12.260  0.0000E+00  0.8000E+01
 -12.250  0.0000E+00  0.8000E+01
 -12.240  0.0000E+00  0.8000E+01
 -12.230  0.0000E+00  0.8000E+01
 -12.220  0.0000E+00  0.8000E+01
 -12.210  0.0000E+00  0.8000E+01
 -12.200  0.0000E+00  0.8000E+01
 -12.190  0.0000E+00  0.8000E+01
 -12.180  0.0000E+00  0.8000E+01
 -12.170  0.0000E+00  0.8000E+01
 -12.160  0.0000E+00  0.8000E+01
 -12.150  0.0000E+00  0.8000E+01
 -12.140  0.0000E+00  0.8000E+01
 -12.130  0.0000E+00  0.8000E+01
 -12.120  0.0000E+00  0.8000E+01
 -12.110  0.0000E+00  0.8000E+01
 -12.100  0.0000E+00  0.8000E+01
 -12.090  0.0000E+00  0.8000E+01
 -12.080  0.0000E+00  0.8000E+01
 -12.070  0.0000E+00  0.8000E+01
 -12.060  0.0000E+00  0.8000E+01
 -12.050  0.0000E+00  0.8000E+01
 -12.040  0.0000E+00  0.8000E+01
 -12.030  0.0000E+00  0.8000E+01
 -12.020  0.0000E+00  0.8000E+01
 -12.010  0.0000E+00  0.8000E+01
 -12.000  0.0000E+00  0.8000E+01
 -11.990  0.0000E+00  0.8000E+01
 -11.980  0.0000E+00  0.8000E+01
 -11.970  0.0000E+00  0.8000E+01
 -11.960  0.0000E+00  0.8000E+01
 -11.950  0.0000E+00  0.8000E+01
 -11.940  0.0000E+00  0.8000E+01
 -11.930  0.0000E+00  0.8000E+01
 -11.920  0.0000E+00  0.8000E+01
 -11.910  0.0000E+00  0.8000E+01
 -11.900  0.0000E+00  0.8000E+01
 -11.890  0.0000E+00  0.8000E+01
 -11.880  0.0000E+00  0.8000E+01
 -11.870  0.0000E+00  0.8000E+01
 -11.860  0.0000E+00  0.8000E+01
 -11.850  0.0000E+00  0.8000E+01
 -11.840  0.0000E+00  0.8000E+01
 -11.830  0.0000E+00  0.8000E+01
 -11.820  0.0000E+00  0.8000E+01
 -11.810  0.0000E+00  0.8000E+01
 -11.800  0.0000E+00  0.8000E+01
 -11.790  0.0000E+00  0.8000E+01
 -11.780  0.0000E+00  0.8000E+01
 -11.770  0.0000E+00  0.8000E+01
 -11.760  0.0000E+00  0.8000E+01
 -11.750  0.0000E+00  0.8000E+01
 -11.740  0.0000E+00  0.8000E+01
 -11.730  0.0000E+00  0.8000E+01
 -11.720  0.0000E+00  0.8000E+01
 -11.710  0.0000E+00  0.8000E+01
 -11.700  0.0000E+00  0.8000E+01
 -11.690  0.0000E+00  0.8000E+01
 -11.680  0.0000E+00  0.8000E+01
 -11.670  0.0000E+00  0.8000E+01
 -11.660  0.0000E+00  0.8000E+01
 -11.650  0.0000E+00  0.8000E+01
 -11.640  0.0000E+00  0.8000E+01
 -11.630  0.0000E+00  0.8000E+01
 -11.620  0.0000E+00  0.8000E+01
 -11.610  0.0000E+00  0.8000E+01
 -11.600  0.0000E+00  0.8000E+01
 -11.590  0.0000E+00  0.8000E+01
 -11.580  0.0000E+00  0.8000E+01
 -11.570  0.0000E+00  0.8000E+01
 -11.560  0.0000E+00  0.8000E+01
 -11.550  0.0000E+00  0.8000E+01
 -11.540  0.0000E+00  0.8000E+01
 -11.530  0.0000E+00  0.8000E+01
 -11.520  0.0000E+00  0.8000E+01
 -11.510  0.0000E+00  0.8000E+01
 -11.500  0.0000E+00  0.8000E+01
 -11.490  0.0000E+00  0.8000E+01
 -11.480  0.0000E+00  0.8000E+01
 -11.470  0.0000E+00  0.8000E+01
 -11.460  0.0000E+00  0.8000E+01
 -11.450  0.0000E+00  0.8000E+01
 -11.440  0.0000E+00  0.8000E+01
 -11.430  0.0000E+00  0.8000E+01
 -11.420  0.0000E+00  0.8000E+01
 -11.410  0.0000E+00  0.8000E+01
 -11.400  0.0000E+00  0.8000E+01
 -11.390  0.0000E+00  0.8000E+01
 -11.380  0.0000E+00  0.8000E+01
 -11.370  0.0000E+00  0.8000E+01
 -11.360  0.0000E+00  0.8000E+01
 -11.350  0.0000E+00  0.8000E+01
 -11.340  0.0000E+00  0.8000E+01
 -11.330  0.0000E+00  0.8000E+01
 -11.320  0.0000E+00  0.8000E+01
 -11.310  0.0000E+00  0.8000E+01
 -11.300  0.0000E+00  0.8000E+01
 -11.290  0.0000E+00  0.8000E+01
 -11.280  0.0000E+00  0.8000E+01
 -11.270  0.0000E+00  0.8000E+01
 -11.260  0.0000E+00  0.8000E+01
 -11.250  0.0000E+00  0.8000E+01
 -11.240  0.0000E+00  0.8000E+01
 -11.230  0.0000E+00  0.8000E+01
 -11.220  0.0000E+00  0.8000E+01
 -11.210  0.0000E+00  0.8000E+01
 -11.200  0.0000E+00  0.8000E+01
 -11.190  0.0000E+00  0.8000E+01
 -11.180  0.0000E+00  0.8000E+01
 -11.170  0.0000E+00  0.8000E+01
 -11.160  0.0000E+00  0.8000E+01
 -11.150  0.0000E+00  0.8000E+01
 -11.140  0.0000E+00  0.8000E+01
 -11.130  0.0000E+00  0.8000E+01
 -11.120  0.0000E+00  0.8000E+01
 -11.110  0.0000E+00  0.8000E+01
 -11.100  0.0000E+00  0.8000E+01
 -11.090  0.0000E+00  0.8000E+01
 -11.080  0.0000E+00  0.8000E+01
 -11.070  0.0000E+00  0.8000E+01
 -11.060  0.0000E+00  0.8000E+01
 -11.050  0.0000E+00  0.8000E+01
 -11.040  0.0000E+00  0.8000E+01
 -11.030  0.0000E+00  0.8000E+01
 -11.020  0.0000E+00  0.8000E+01
 -11.010  0.0000E+00  0.8000E+01
 -11.000  0.0000E+00  0.8000E+01
 -10.990  0.0000E+00  0.8000E+01
 -10.980  0.0000E+00  0.8000E+01
 -10.970  0.0000E+00  0.8000E+01
 -10.960  0.0000E+00  0.8000E+01
 -10.950  0.0000E+00  0.8000E+01
 -10.940  0.0000E+00  0.8000E+01
 -10.930  0.0000E+00  0.8000E+01
 -10.920  0.0000E+00  0.8000E+01
 -10.910  0.0000E+00  0.8000E+01
 -10.900  0.0000E+00  0.8000E+01
 -10.890  0.0000E+00  0.8000E+01
 -10.880  0.0000E+00  0.8000E+01
 -10.870  0.0000E+00  0.8000E+01
 -10.860  0.0000E+00  0.8000E+01
 -10.850  0.0000E+00  0.8000E+01
 -10.840  0.0000E+00  0.8000E+01
 -10.830  0.0000E+00  0.8000E+01
 -10.820  0.0000E+00  0.8000E+01
 -10.810  0.0000E+00  0.8000E+01
 -10.800  0.0000E+00  0.8000E+01
 -10.790  0.0000E+00  0.8000E+01
 -10.780  0.0000E+00  0.8000E+01
 -10.770  0.0000E+00  0.8000E+01
 -10.760  0.0000E+00  0.8000E+01
 -10.750  0.0000E+00  0.8000E+01
 -10.740  0.0000E+00  0.8000E+01
 -10.730  0.0000E+00  0.8000E+01
 -10.720  0.0000E+00  0.8000E+01
 -10.710  0.0000E+00  0.8000E+01
 -10.700  0.0000E+00  0.8000E+01
 -10.690  0.0000E+00  0.8000E+01
 -10.680  0.0000E+00  0.8000E+01
 -10.670  0.0000E+00  0.8000E+01
 -10.660  0.0000E+00  0.8000E+01
 -10.650  0.0000E+00  0.8000E+01
 -10.640  0.0000E+00  0.8000E+01
 -10.630  0.0000E+00  0.8000E+01
 -10.620  0.0000E+00  0.8000E+01
 -10.610  0.0000E+00  0.8000E+01
 -10.600  0.0000E+00  0.8000E+01
 -10.590  0.0000E+00  0.8000E+01
 -10.580  0.0000E+00  0.8000E+01
 -10.570  0.0000E+00  0.8000E+01
 -10.560  0.0000E+00  0.8000E+01
 -10.550  0.0000E+00  0.8000E+01
 -10.540  0.0000E+00  0.8000E+01
 -10.530  0.0000E+00  0.8000E+01
 -10.520  0.0000E+00  0.8000E+01
 -10.510  0.0000E+00  0.8000E+01
 -10.500  0.0000E+00  0.8000E+01
 -10.490  0.0000E+00  0.8000E+01
 -10.480  0.0000E+00  0.8000E+01
 -10.470  0.0000E+00  0.8000E+01
 -10.460  0.0000E+00  0.8000E+01
 -10.450  0.0000E+00  0.8000E+01
 -10.440  0.0000E+00  0.8000E+01
 -10.430  0.0000E+00  0.8000E+01
 -10.420  0.0000E+00  0.8000E+01
 -10.410  0.0000E+00  0.8000E+01
 -10.400  0.0000E+00  0.8000E+01
 -10.390  0.0000E+00  0.8000E+01
 -10.380  0.0000E+00  0.8000E+01
 -10.370  0.0000E+00  0.8000E+01
 -10.360  0.0000E+00  0.8000E+01
 -10.350  0.0000E+00  0.8000E+01
 -10.340  0.0000E+00  0.8000E+01
 -10.330  0.0000E+00  0.8000E+01
 -10.320  0.0000E+00  0.8000E+01
 -10.310  0.0000E+00  0.8000E+01
 -10.300  0.0000E+00  0.8000E+01
 -10.290  0.0000E+00  0.8000E+01
 -10.280  0.0000E+00  0.8000E+01
 -10.270  0.0000E+00  0.8000E+01
 -10.260  0.0000E+00  0.8000E+01
 -10.250  0.0000E+00  0.8000E+01
 -10.240  0.0000E+00  0.8000E+01
 -10.230  0.0000E+00  0.8000E+01
 -10.220  0.0000E+00  0.8000E+01
 -10.210  0.0000E+00  0.8000E+01
 -10.200  0.0000E+00  0.8000E+01
 -10.190  0.0000E+00  0.8000E+01
 -10.180  0.0000E+00  0.8000E+01
 -10.170  0.0000E+00  0.8000E+01
 -10.160  0.0000E+00  0.8000E+01
 -10.150  0.0000E+00  0.8000E+01
 -10.140  0.0000E+00  0.8000E+01
 -10.130  0.0000E+00  0.8000E+01
 -10.120  0.0000E+00  0.8000E+01
 -10.110  0.0000E+00  0.8000E+01
 -10.100  0.0000E+00  0.8000E+01
 -10.090  0.0000E+00  0.8000E+01
 -10.080  0.0000E+00  0.8000E+01
 -10.070  0.0000E+00  0.8000E+01
 -10.060  0.0000E+00  0.8000E+01
 -10.050  0.0000E+00  0.8000E+01
 -10.040  0.0000E+00  0.8000E+01
 -10.030  0.0000E+00  0.8000E+01
 -10.020  0.0000E+00  0.8000E+01
 -10.010  0.0000E+00  0.8000E+01
 -10.000  0.0000E+00  0.8000E+01
  -9.990  0.0000E+00  0.8000E+01
  -9.980  0.0000E+00  0.8000E+01
  -9.970  0.0000E+00  0.8000E+01
  -9.960  0.0000E+00  0.8000E+01
  -9.950  0.0000E+00  0.8000E+01
  -9.940  0.0000E+00  0.8000E+01
  -9.930  0.0000E+00  0.8000E+01
  -9.920  0.0000E+00  0.8000E+01
  -9.910  0.0000E+00  0.8000E+01
  -9.900  0.0000E+00  0.8000E+01
  -9.890  0.0000E+00  0.8000E+01
  -9.880  0.0000E+00  0.8000E+01
  -9.870  0.0000E+00  0.8000E+01
  -9.860  0.0000E+00  0.8000E+01
  -9.850  0.0000E+00  0.8000E+01
  -9.840  0.0000E+00  0.8000E+01
  -9.830  0.0000E+00  0.8000E+01
  -9.820  0.0000E+00  0.8000E+01
  -9.810  0.0000E+00  0.8000E+01
  -9.800  0.0000E+00  0.8000E+01
  -9.790  0.0000E+00  0.8000E+01
  -9.780  0.0000E+00  0.8000E+01
  -9.770  0.0000E+00  0.8000E+01
  -9.760  0.0000E+00  0.8000E+01
  -9.750  0.0000E+00  0.8000E+01
  -9.740  0.0000E+00  0.8000E+01
  -9.730  0.0000E+00  0.8000E+01
  -9.720  0.0000E+00  0.8000E+01
  -9.710  0.0000E+00  0.8000E+01
  -9.700  0.0000E+00  0.8000E+01
  -9.690  0.0000E+00  0.8000E+01
  -9.680  0.0000E+00  0.8000E+01
  -9.670  0.0000E+00  0.8000E+01
  -9.660  0.0000E+00  0.8000E+01
  -9.650  0.0000E+00  0.8000E+01
  -9.640  0.0000E+00  0.8000E+01
  -9.630  0.0000E+00  0.8000E+01
  -9.620  0.0000E+00  0.8000E+01
  -9.610  0.0000E+00  0.8000E+01
  -9.600  0.0000E+00  0.8000E+01
  -9.590  0.0000E+00  0.8000E+01
  -9.580  0.0000E+00  0.8000E+01
  -9.570  0.0000E+00  0.8000E+01
  -9.560  0.0000E+00  0.8000E+01
  -9.550  0.0000E+00  0.8000E+01
  -9.540  0.0000E+00  0.8000E+01
  -9.530  0.0000E+00  0.8000E+01
  -9.520  0.0000E+00  0.8000E+01
  -9.510  0.0000E+00  0.8000E+01
  -9.500  0.0000E+00  0.8000E+01
  -9.490  0.0000E+00  0.8000E+01
  -9.480  0.0000E+00  0.8000E+01
  -9.470  0.0000E+00  0.8000E+01
  -9.460  0.0000E+00  0.8000E+01
  -9.450  0.0000E+00  0.8000E+01
  -9.440  0.0000E+00  0.8000E+01
  -9.430  0.0000E+00  0.8000E+01
  -9.420  0.0000E+00  0.8000E+01
  -9.410  0.0000E+00  0.8000E+01
  -9.400  0.0000E+00  0.8000E+01
  -9.390  0.0000E+00  0.8000E+01
  -9.380  0.0000E+00  0.8000E+01
  -9.370  0.0000E+00  0.8000E+01
  -9.360  0.0000E+00  0.8000E+01
  -9.350  0.0000E+00  0.8000E+01
  -9.340  0.0000E+00  0.8000E+01
  -9.330  0.0000E+00  0.8000E+01
  -9.320  0.0000E+00  0.8000E+01
  -9.310  0.0000E+00  0.8000E+01
  -9.300  0.0000E+00  0.8000E+01
  -9.290  0.0000E+00  0.8000E+01
  -9.280  0.0000E+00  0.8000E+01
  -9.270  0.0000E+00  0.8000E+01
  -9.260  0.0000E+00  0.8000E+01
  -9.250  0.0000E+00  0.8000E+01
  -9.240  0.0000E+00  0.8000E+01
  -9.230  0.0000E+00  0.8000E+01
  -9.220  0.0000E+00  0.8000E+01
  -9.210  0.0000E+00  0.8000E+01
  -9.200  0.0000E+00  0.8000E+01
  -9.190  0.0000E+00  0.8000E+01
  -9.180  0.0000E+00  0.8000E+01
  -9.170  0.0000E+00  0.8000E+01
  -9.160  0.0000E+00  0.8000E+01
  -9.150  0.0000E+00  0.8000E+01
  -9.140  0.0000E+00  0.8000E+01
  -9.130  0.0000E+00  0.8000E+01
  -9.120  0.0000E+00  0.8000E+01
  -9.110  0.0000E+00  0.8000E+01
  -9.100  0.0000E+00  0.8000E+01
  -9.090  0.0000E+00  0.8000E+01
  -9.080  0.0000E+00  0.8000E+01
  -9.070  0.0000E+00  0.8000E+01
  -9.060  0.0000E+00  0.8000E+01
  -9.050  0.0000E+00  0.8000E+01
  -9.040  0.0000E+00  0.8000E+01
  -9.030  0.0000E+00  0.8000E+01
  -9.020  0.0000E+00  0.8000E+01
  -9.010  0.0000E+00  0.8000E+01
  -9.000  0.0000E+00  0.8000E+01
  -8.990  0.0000E+00  0.8000E+01
  -8.980  0.0000E+00  0.8000E+01
  -8.970  0.0000E+00  0.8000E+01
  -8.960  0.0000E+00  0.8000E+01
  -8.950  0.0000E+00  0.8000E+01
  -8.940  0.0000E+00  0.8000E+01
  -8.930  0.0000E+00  0.8000E+01
  -8.920  0.0000E+00  0.8000E+01
  -8.910  0.0000E+00  0.8000E+01
  -8.900  0.0000E+00  0.8000E+01
  -8.890  0.0000E+00  0.8000E+01
  -8.880  0.0000E+00  0.8000E+01
  -8.870  0.0000E+00  0.8000E+01
  -8.860  0.0000E+00  0.8000E+01
  -8.850  0.0000E+00  0.8000E+01
  -8.840  0.0000E+00  0.8000E+01
  -8.830  0.0000E+00  0.8000E+01
  -8.820  0.0000E+00  0.8000E+01
  -8.810  0.0000E+00  0.8000E+01
  -8.800  0.0000E+00  0.8000E+01
  -8.790  0.0000E+00  0.8000E+01
  -8.780  0.0000E+00  0.8000E+01
  -8.770  0.0000E+00  0.8000E+01
  -8.760  0.0000E+00  0.8000E+01
  -8.750  0.0000E+00  0.8000E+01
  -8.740  0.0000E+00  0.8000E+01
  -8.730  0.0000E+00  0.8000E+01
  -8.720  0.0000E+00  0.8000E+01
  -8.710  0.0000E+00  0.8000E+01
  -8.700  0.0000E+00  0.8000E+01
  -8.690  0.0000E+00  0.8000E+01
  -8.680  0.0000E+00  0.8000E+01
  -8.670  0.0000E+00  0.8000E+01
  -8.660  0.0000E+00  0.8000E+01
  -8.650  0.0000E+00  0.8000E+01
  -8.640  0.0000E+00  0.8000E+01
  -8.630  0.0000E+00  0.8000E+01
  -8.620  0.0000E+00  0.8000E+01
  -8.610  0.0000E+00  0.8000E+01
  -8.600  0.0000E+00  0.8000E+01
  -8.590  0.0000E+00  0.8000E+01
  -8.580  0.0000E+00  0.8000E+01
  -8.570  0.0000E+00  0.8000E+01
  -8.560  0.0000E+00  0.8000E+01
  -8.550  0.0000E+00  0.8000E+01
  -8.540  0.0000E+00  0.8000E+01
  -8.530  0.0000E+00  0.8000E+01
  -8.520  0.0000E+00  0.8000E+01
  -8.510  0.0000E+00  0.8000E+01
  -8.500  0.0000E+00  0.8000E+01
  -8.490  0.0000E+00  0.8000E+01
  -8.480  0.0000E+00  0.8000E+01
  -8.470  0.0000E+00  0.8000E+01
  -8.460  0.0000E+00  0.8000E+01
  -8.450  0.0000E+00  0.8000E+01
  -8.440  0.0000E+00  0.8000E+01
  -8.430  0.0000E+00  0.8000E+01
  -8.420  0.0000E+00  0.8000E+01
  -8.410  0.0000E+00  0.8000E+01
  -8.400  0.0000E+00  0.8000E+01
  -8.390  0.0000E+00  0.8000E+01
  -8.380  0.0000E+00  0.8000E+01
  -8.370  0.0000E+00  0.8000E+01
  -8.360  0.0000E+00  0.8000E+01
  -8.350  0.0000E+00  0.8000E+01
  -8.340  0.0000E+00  0.8000E+01
  -8.330  0.0000E+00  0.8000E+01
  -8.320  0.0000E+00  0.8000E+01
  -8.310  0.0000E+00  0.8000E+01
  -8.300  0.0000E+00  0.8000E+01
  -8.290  0.0000E+00  0.8000E+01
  -8.280  0.0000E+00  0.8000E+01
  -8.270  0.0000E+00  0.8000E+01
  -8.260  0.0000E+00  0.8000E+01
  -8.250  0.0000E+00  0.8000E+01
  -8.240  0.0000E+00  0.8000E+01
  -8.230  0.0000E+00  0.8000E+01
  -8.220  0.0000E+00  0.8000E+01
  -8.210  0.0000E+00  0.8000E+01
  -8.200  0.0000E+00  0.8000E+01
  -8.190  0.0000E+00  0.8000E+01
  -8.180  0.0000E+00  0.8000E+01
  -8.170  0.0000E+00  0.8000E+01
  -8.160  0.0000E+00  0.8000E+01
  -8.150  0.0000E+00  0.8000E+01
  -8.140  0.0000E+00  0.8000E+01
  -8.130  0.0000E+00  0.8000E+01
  -8.120  0.0000E+00  0.8000E+01
  -8.110  0.0000E+00  0.8000E+01
  -8.100  0.0000E+00  0.8000E+01
  -8.090  0.0000E+00  0.8000E+01
  -8.080  0.0000E+00  0.8000E+01
  -8.070  0.0000E+00  0.8000E+01
  -8.060  0.0000E+00  0.8000E+01
  -8.050  0.0000E+00  0.8000E+01
  -8.040  0.0000E+00  0.8000E+01
  -8.030  0.0000E+00  0.8000E+01
  -8.020  0.0000E+00  0.8000E+01
  -8.010  0.0000E+00  0.8000E+01
  -8.000  0.0000E+00  0.8000E+01
  -7.990  0.0000E+00  0.8000E+01
  -7.980  0.0000E+00  0.8000E+01
  -7.970  0.0000E+00  0.8000E+01
  -7.960  0.0000E+00  0.8000E+01
  -7.950  0.0000E+00  0.8000E+01
  -7.940  0.0000E+00  0.8000E+01
  -7.930  0.0000E+00  0.8000E+01
  -7.920  0.0000E+00  0.8000E+01
  -7.910  0.0000E+00  0.8000E+01
  -7.900  0.0000E+00  0.8000E+01
  -7.890  0.0000E+00  0.8000E+01
  -7.880  0.0000E+00  0.8000E+01
  -7.870  0.0000E+00  0.8000E+01
  -7.860  0.0000E+00  0.8000E+01
  -7.850  0.0000E+00  0.8000E+01
  -7.840  0.0000E+00  0.8000E+01
  -7.830  0.0000E+00  0.8000E+01
  -7.820  0.0000E+00  0.8000E+01
  -7.810  0.0000E+00  0.8000E+01
  -7.800  0.0000E+00  0.8000E+01
  -7.790  0.0000E+00  0.8000E+01
  -7.780  0.0000E+00  0.8000E+01
  -7.770  0.0000E+00  0.8000E+01
  -7.760  0.0000E+00  0.8000E+01
  -7.750  0.0000E+00  0.8000E+01
  -7.740  0.0000E+00  0.8000E+01
  -7.730  0.0000E+00  0.8000E+01
  -7.720  0.0000E+00  0.8000E+01
  -7.710  0.0000E+00  0.8000E+01
  -7.700  0.0000E+00  0.8000E+01
  -7.690  0.0000E+00  0.8000E+01
  -7.680  0.0000E+00  0.8000E+01
  -7.670  0.0000E+00  0.8000E+01
  -7.660  0.0000E+00  0.8000E+01
  -7.650  0.0000E+00  0.8000E+01
  -7.640  0.0000E+00  0.8000E+01
  -7.630  0.0000E+00  0.8000E+01
  -7.620  0.0000E+00  0.8000E+01
  -7.610  0.0000E+00  0.8000E+01
  -7.600  0.0000E+00  0.8000E+01
  -7.590  0.0000E+00  0.8000E+01
  -7.580  0.0000E+00  0.8000E+01
  -7.570  0.0000E+00  0.8000E+01
  -7.560  0.0000E+00  0.8000E+01
  -7.550  0.0000E+00  0.8000E+01
  -7.540  0.0000E+00  0.8000E+01
  -7.530  0.0000E+00  0.8000E+01
  -7.520  0.0000E+00  0.8000E+01
  -7.510  0.0000E+00  0.8000E+01
  -7.500  0.0000E+00  0.8000E+01
  -7.490  0.0000E+00  0.8000E+01
  -7.480  0.0000E+00  0.8000E+01
  -7.470  0.0000E+00  0.8000E+01
  -7.460  0.0000E+00  0.8000E+01
  -7.450  0.0000E+00  0.8000E+01
  -7.440  0.0000E+00  0.8000E+01
  -7.430  0.0000E+00  0.8000E+01
  -7.420  0.0000E+00  0.8000E+01
  -7.410  0.0000E+00  0.8000E+01
  -7.400  0.0000E+00  0.8000E+01
  -7.390  0.0000E+00  0.8000E+01
  -7.380  0.0000E+00  0.8000E+01
  -7.370  0.0000E+00  0.8000E+01
  -7.360  0.0000E+00  0.8000E+01
  -7.350  0.0000E+00  0.8000E+01
  -7.340  0.0000E+00  0.8000E+01
  -7.330  0.0000E+00  0.8000E+01
  -7.320  0.0000E+00  0.8000E+01
  -7.310  0.0000E+00  0.8000E+01
  -7.300  0.0000E+00  0.8000E+01
  -7.290  0.0000E+00  0.8000E+01
  -7.280  0.0000E+00  0.8000E+01
  -7.270  0.0000E+00  0.8000E+01
  -7.260  0.0000E+00  0.8000E+01
  -7.250  0.0000E+00  0.8000E+01
  -7.240  0.0000E+00  0.8000E+01
  -7.230  0.0000E+00  0.8000E+01
  -7.220  0.0000E+00  0.8000E+01
  -7.210  0.0000E+00  0.8000E+01
  -7.200  0.0000E+00  0.8000E+01
  -7.190  0.0000E+00  0.8000E+01
  -7.180  0.0000E+00  0.8000E+01
  -7.170  0.0000E+00  0.8000E+01
  -7.160  0.0000E+00  0.8000E+01
  -7.150  0.0000E+00  0.8000E+01
  -7.140  0.0000E+00  0.8000E+01
  -7.130  0.0000E+00  0.8000E+01
  -7.120  0.0000E+00  0.8000E+01
  -7.110  0.0000E+00  0.8000E+01
  -7.100  0.0000E+00  0.8000E+01
  -7.090  0.0000E+00  0.8000E+01
  -7.080  0.0000E+00  0.8000E+01
  -7.070  0.0000E+00  0.8000E+01
  -7.060  0.0000E+00  0.8000E+01
  -7.050  0.0000E+00  0.8000E+01
  -7.040  0.0000E+00  0.8000E+01
  -7.030  0.0000E+00  0.8000E+01
  -7.020  0.0000E+00  0.8000E+01
  -7.010  0.0000E+00  0.8000E+01
  -7.000  0.0000E+00  0.8000E+01
  -6.990  0.0000E+00  0.8000E+01
  -6.980  0.0000E+00  0.8000E+01
  -6.970  0.0000E+00  0.8000E+01
  -6.960  0.0000E+00  0.8000E+01
  -6.950  0.0000E+00  0.8000E+01
  -6.940  0.0000E+00  0.8000E+01
  -6.930  0.0000E+00  0.8000E+01
  -6.920  0.0000E+00  0.8000E+01
  -6.910  0.0000E+00  0.8000E+01
  -6.900  0.0000E+00  0.8000E+01
  -6.890  0.0000E+00  0.8000E+01
  -6.880  0.0000E+00  0.8000E+01
  -6.870  0.0000E+00  0.8000E+01
  -6.860  0.0000E+00  0.8000E+01
  -6.850  0.0000E+00  0.8000E+01
  -6.840  0.0000E+00  0.8000E+01
  -6.830  0.0000E+00  0.8000E+01
  -6.820  0.0000E+00  0.8000E+01
  -6.810  0.0000E+00  0.8000E+01
  -6.800  0.0000E+00  0.8000E+01
  -6.790  0.0000E+00  0.8000E+01
  -6.780  0.0000E+00  0.8000E+01
  -6.770  0.0000E+00  0.8000E+01
  -6.760  0.0000E+00  0.8000E+01
  -6.750  0.0000E+00  0.8000E+01
  -6.740  0.0000E+00  0.8000E+01
  -6.730  0.0000E+00  0.8000E+01
  -6.720  0.0000E+00  0.8000E+01
  -6.710  0.0000E+00  0.8000E+01
  -6.700  0.0000E+00  0.8000E+01
  -6.690  0.0000E+00  0.8000E+01
  -6.680  0.0000E+00  0.8000E+01
  -6.670  0.0000E+00  0.8000E+01
  -6.660  0.0000E+00  0.8000E+01
  -6.650  0.0000E+00  0.8000E+01
  -6.640  0.0000E+00  0.8000E+01
  -6.630  0.0000E+00  0.8000E+01
  -6.620  0.0000E+00  0.8000E+01
  -6.610  0.0000E+00  0.8000E+01
  -6.600  0.0000E+00  0.8000E+01
  -6.590  0.0000E+00  0.8000E+01
  -6.580  0.0000E+00  0.8000E+01
  -6.570  0.0000E+00  0.8000E+01
  -6.560  0.0000E+00  0.8000E+01
  -6.550  0.0000E+00  0.8000E+01
  -6.540  0.0000E+00  0.8000E+01
  -6.530  0.0000E+00  0.8000E+01
  -6.520  0.0000E+00  0.8000E+01
  -6.510  0.0000E+00  0.8000E+01
  -6.500  0.0000E+00  0.8000E+01
  -6.490  0.0000E+00  0.8000E+01
  -6.480  0.0000E+00  0.8000E+01
  -6.470  0.0000E+00  0.8000E+01
  -6.460  0.0000E+00  0.8000E+01
  -6.450  0.0000E+00  0.8000E+01
  -6.440  0.0000E+00  0.8000E+01
  -6.430  0.0000E+00  0.8000E+01
  -6.420  0.0000E+00  0.8000E+01
  -6.410  0.0000E+00  0.8000E+01
  -6.400  0.0000E+00  0.8000E+01
  -6.390  0.0000E+00  0.8000E+01
  -6.380  0.0000E+00  0.8000E+01
  -6.370  0.0000E+00  0.8000E+01
  -6.360  0.0000E+00  0.8000E+01
  -6.350  0.0000E+00  0.8000E+01
  -6.340  0.0000E+00  0.8000E+01
  -6.330  0.0000E+00  0.8000E+01
  -6.320  0.0000E+00  0.8000E+01
  -6.310  0.0000E+00  0.8000E+01
  -6.300  0.0000E+00  0.8000E+01
  -6.290  0.0000E+00  0.8000E+01
  -6.280  0.0000E+00  0.8000E+01
  -6.270  0.0000E+00  0.8000E+01
  -6.260  0.0000E+00  0.8000E+01
  -6.250  0.0000E+00  0.8000E+01
  -6.240  0.0000E+00  0.8000E+01
  -6.230  0.0000E+00  0.8000E+01
  -6.220  0.0000E+00  0.8000E+01
  -6.210  0.0000E+00  0.8000E+01
  -6.200  0.0000E+00  0.8000E+01
  -6.190  0.0000E+00  0.8000E+01
  -6.180  0.0000E+00  0.8000E+01
  -6.170  0.0000E+00  0.8000E+01
  -6.160  0.0000E+00  0.8000E+01
  -6.150  0.0000E+00  0.8000E+01
  -6.140  0.0000E+00  0.8000E+01
  -6.130  0.0000E+00  0.8000E+01
  -6.120  0.0000E+00  0.8000E+01
  -6.110  0.0000E+00  0.8000E+01
  -6.100  0.0000E+00  0.8000E+01
  -6.090  0.0000E+00  0.8000E+01
  -6.080  0.0000E+00  0.8000E+01
  -6.070  0.0000E+00  0.8000E+01
  -6.060  0.0000E+00  0.8000E+01
  -6.050  0.0000E+00  0.8000E+01
  -6.040  0.0000E+00  0.8000E+01
  -6.030  0.0000E+00  0.8000E+01
  -6.020  0.0000E+00  0.8000E+01
  -6.010  0.0000E+00  0.8000E+01
  -6.000  0.0000E+00  0.8000E+01
  -5.990  0.0000E+00  0.8000E+01
  -5.980  0.0000E+00  0.8000E+01
  -5.970  0.0000E+00  0.8000E+01
  -5.960  0.0000E+00  0.8000E+01
  -5.950  0.0000E+00  0.8000E+01
  -5.940  0.0000E+00  0.8000E+01
  -5.930  0.0000E+00  0.8000E+01
  -5.920  0.0000E+00  0.8000E+01
  -5.910  0.0000E+00  0.8000E+01
  -5.900  0.0000E+00  0.8000E+01
  -5.890  0.0000E+00  0.8000E+01
  -5.880  0.0000E+00  0.8000E+01
  -5.870  0.0000E+00  0.8000E+01
  -5.860  0.0000E+00  0.8000E+01
  -5.850  0.0000E+00  0.8000E+01
  -5.840  0.0000E+00  0.8000E+01
  -5.830  0.0000E+00  0.8000E+01
  -5.820  0.0000E+00  0.8000E+01
  -5.810  0.0000E+00  0.8000E+01
  -5.800  0.0000E+00  0.8000E+01
  -5.790  0.0000E+00  0.8000E+01
  -5.780  0.0000E+00  0.8000E+01
  -5.770  0.0000E+00  0.8000E+01
  -5.760  0.0000E+00  0.8000E+01
  -5.750  0.0000E+00  0.8000E+01
  -5.740  0.0000E+00  0.8000E+01
  -5.730  0.0000E+00  0.8000E+01
  -5.720  0.0000E+00  0.8000E+01
  -5.710  0.0000E+00  0.8000E+01
  -5.700  0.0000E+00  0.8000E+01
  -5.690  0.0000E+00  0.8000E+01
  -5.680  0.0000E+00  0.8000E+01
  -5.670  0.0000E+00  0.8000E+01
  -5.660  0.0000E+00  0.8000E+01
  -5.650  0.0000E+00  0.8000E+01
  -5.640  0.0000E+00  0.8000E+01
  -5.630  0.0000E+00  0.8000E+01
  -5.620  0.0000E+00  0.8000E+01
  -5.610  0.0000E+00  0.8000E+01
  -5.600  0.0000E+00  0.8000E+01
  -5.590  0.0000E+00  0.8000E+01
  -5.580  0.0000E+00  0.8000E+01
  -5.570  0.0000E+00  0.8000E+01
  -5.560  0.0000E+00  0.8000E+01
  -5.550  0.0000E+00  0.8000E+01
  -5.540  0.0000E+00  0.8000E+01
  -5.530  0.0000E+00  0.8000E+01
  -5.520  0.0000E+00  0.8000E+01
  -5.510  0.0000E+00  0.8000E+01
  -5.500  0.0000E+00  0.8000E+01
  -5.490  0.0000E+00  0.8000E+01
  -5.480  0.0000E+00  0.8000E+01
  -5.470  0.0000E+00  0.8000E+01
  -5.460  0.0000E+00  0.8000E+01
  -5.450  0.0000E+00  0.8000E+01
  -5.440  0.0000E+00  0.8000E+01
  -5.430  0.0000E+00  0.8000E+01
  -5.420  0.0000E+00  0.8000E+01
  -5.410  0.0000E+00  0.8000E+01
  -5.400  0.0000E+00  0.8000E+01
  -5.390  0.0000E+00  0.8000E+01
  -5.380  0.0000E+00  0.8000E+01
  -5.370  0.0000E+00  0.8000E+01
  -5.360  0.0000E+00  0.8000E+01
  -5.350  0.0000E+00  0.8000E+01
  -5.340  0.0000E+00  0.8000E+01
  -5.330  0.0000E+00  0.8000E+01
  -5.320  0.0000E+00  0.8000E+01
  -5.310  0.0000E+00  0.8000E+01
  -5.300  0.0000E+00  0.8000E+01
  -5.290  0.0000E+00  0.8000E+01
  -5.280  0.0000E+00  0.8000E+01
  -5.270  0.0000E+00  0.8000E+01
  -5.260  0.0000E+00  0.8000E+01
  -5.250  0.0000E+00  0.8000E+01
  -5.240  0.0000E+00  0.8000E+01
  -5.230  0.0000E+00  0.8000E+01
  -5.220  0.0000E+00  0.8000E+01
  -5.210  0.0000E+00  0.8000E+01
  -5.200  0.0000E+00  0.8000E+01
  -5.190  0.0000E+00  0.8000E+01
  -5.180  0.0000E+00  0.8000E+01
  -5.170  0.0000E+00  0.8000E+01
  -5.160  0.0000E+00  0.8000E+01
  -5.150  0.0000E+00  0.8000E+01
  -5.140  0.0000E+00  0.8000E+01
  -5.130  0.0000E+00  0.8000E+01
  -5.120  0.0000E+00  0.8000E+01
  -5.110  0.0000E+00  0.8000E+01
  -5.100  0.0000E+00  0.8000E+01
  -5.090  0.0000E+00  0.8000E+01
  -5.080  0.0000E+00  0.8000E+01
  -5.070  0.0000E+00  0.8000E+01
  -5.060  0.0000E+00  0.8000E+01
  -5.050  0.0000E+00  0.8000E+01
  -5.040  0.0000E+00  0.8000E+01
  -5.030  0.0000E+00  0.8000E+01
  -5.020  0.0000E+00  0.8000E+01
  -5.010  0.0000E+00  0.8000E+01
  -5.000  0.0000E+00  0.8000E+01
  -4.990  0.0000E+00  0.8000E+01
  -4.980  0.0000E+00  0.8000E+01
  -4.970  0.0000E+00  0.8000E+01
  -4.960  0.0000E+00  0.8000E+01
  -4.950  0.0000E+00  0.8000E+01
  -4.940  0.0000E+00  0.8000E+01
  -4.930  0.0000E+00  0.8000E+01
  -4.920  0.0000E+00  0.8000E+01
  -4.910  0.0000E+00  0.8000E+01
  -4.900  0.0000E+00  0.8000E+01
  -4.890  0.0000E+00  0.8000E+01
  -4.880  0.0000E+00  0.8000E+01
  -4.870  0.0000E+00  0.8000E+01
  -4.860  0.0000E+00  0.8000E+01
  -4.850  0.0000E+00  0.8000E+01
  -4.840  0.0000E+00  0.8000E+01
  -4.830  0.0000E+00  0.8000E+01
  -4.820  0.0000E+00  0.8000E+01
  -4.810  0.0000E+00  0.8000E+01
  -4.800  0.0000E+00  0.8000E+01
  -4.790  0.0000E+00  0.8000E+01
  -4.780  0.0000E+00  0.8000E+01
  -4.770  0.0000E+00  0.8000E+01
  -4.760  0.0000E+00  0.8000E+01
  -4.750  0.0000E+00  0.8000E+01
  -4.740  0.0000E+00  0.8000E+01
  -4.730  0.0000E+00  0.8000E+01
  -4.720  0.0000E+00  0.8000E+01
  -4.710  0.0000E+00  0.8000E+01
  -4.700  0.0000E+00  0.8000E+01
  -4.690  0.0000E+00  0.8000E+01
  -4.680  0.0000E+00  0.8000E+01
  -4.670  0.0000E+00  0.8000E+01
  -4.660  0.0000E+00  0.8000E+01
  -4.650  0.0000E+00  0.8000E+01
  -4.640  0.0000E+00  0.8000E+01
  -4.630  0.0000E+00  0.8000E+01
  -4.620  0.0000E+00  0.8000E+01
  -4.610  0.0000E+00  0.8000E+01
  -4.600  0.0000E+00  0.8000E+01
  -4.590  0.0000E+00  0.8000E+01
  -4.580  0.0000E+00  0.8000E+01
  -4.570  0.0000E+00  0.8000E+01
  -4.560  0.0000E+00  0.8000E+01
  -4.550  0.0000E+00  0.8000E+01
  -4.540  0.0000E+00  0.8000E+01
  -4.530  0.0000E+00  0.8000E+01
  -4.520  0.0000E+00  0.8000E+01
  -4.510  0.0000E+00  0.8000E+01
  -4.500  0.0000E+00  0.8000E+01
  -4.490  0.0000E+00  0.8000E+01
  -4.480  0.0000E+00  0.8000E+01
  -4.470  0.0000E+00  0.8000E+01
  -4.460  0.0000E+00  0.8000E+01
  -4.450  0.0000E+00  0.8000E+01
  -4.440  0.0000E+00  0.8000E+01
  -4.430  0.0000E+00  0.8000E+01
  -4.420  0.0000E+00  0.8000E+01
  -4.410  0.0000E+00  0.8000E+01
  -4.400  0.0000E+00  0.8000E+01
  -4.390  0.0000E+00  0.8000E+01
  -4.380  0.0000E+00  0.8000E+01
  -4.370  0.0000E+00  0.8000E+01
  -4.360  0.0000E+00  0.8000E+01
  -4.350  0.0000E+00  0.8000E+01
  -4.340  0.0000E+00  0.8000E+01
  -4.330  0.0000E+00  0.8000E+01
  -4.320  0.0000E+00  0.8000E+01
  -4.310  0.0000E+00  0.8000E+01
  -4.300  0.0000E+00  0.8000E+01
  -4.290  0.0000E+00  0.8000E+01
  -4.280  0.0000E+00  0.8000E+01
  -4.270  0.0000E+00  0.8000E+01
  -4.260  0.0000E+00  0.8000E+01
  -4.250  0.0000E+00  0.8000E+01
  -4.240  0.0000E+00  0.8000E+01
  -4.230  0.0000E+00  0.8000E+01
  -4.220  0.0000E+00  0.8000E+01
  -4.210  0.0000E+00  0.8000E+01
  -4.200  0.0000E+00  0.8000E+01
  -4.190  0.0000E+00  0.8000E+01
  -4.180  0.0000E+00  0.8000E+01
  -4.170  0.0000E+00  0.8000E+01
  -4.160  0.0000E+00  0.8000E+01
  -4.150  0.0000E+00  0.8000E+01
  -4.140  0.0000E+00  0.8000E+01
  -4.130  0.0000E+00  0.8000E+01
  -4.120  0.0000E+00  0.8000E+01
  -4.110  0.0000E+00  0.8000E+01
  -4.100  0.0000E+00  0.8000E+01
  -4.090  0.0000E+00  0.8000E+01
  -4.080  0.0000E+00  0.8000E+01
  -4.070  0.0000E+00  0.8000E+01
  -4.060  0.0000E+00  0.8000E+01
  -4.050  0.0000E+00  0.8000E+01
  -4.040  0.0000E+00  0.8000E+01
  -4.030  0.0000E+00  0.8000E+01
  -4.020  0.0000E+00  0.8000E+01
  -4.010  0.0000E+00  0.8000E+01
  -4.000  0.0000E+00  0.8000E+01
  -3.990  0.0000E+00  0.8000E+01
  -3.980  0.0000E+00  0.8000E+01
  -3.970  0.0000E+00  0.8000E+01
  -3.960  0.0000E+00  0.8000E+01
  -3.950  0.0000E+00  0.8000E+01
  -3.940  0.0000E+00  0.8000E+01
  -3.930  0.0000E+00  0.8000E+01
  -3.920  0.0000E+00  0.8000E+01
  -3.910  0.0000E+00  0.8000E+01
  -3.900  0.0000E+00  0.8000E+01
  -3.890  0.0000E+00  0.8000E+01
  -3.880  0.0000E+00  0.8000E+01
  -3.870  0.0000E+00  0.8000E+01
  -3.860  0.0000E+00  0.8000E+01
  -3.850  0.0000E+00  0.8000E+01
  -3.840  0.0000E+00  0.8000E+01
  -3.830  0.0000E+00  0.8000E+01
  -3.820  0.0000E+00  0.8000E+01
  -3.810  0.0000E+00  0.8000E+01
  -3.800  0.0000E+00  0.8000E+01
  -3.790  0.0000E+00  0.8000E+01
  -3.780  0.0000E+00  0.8000E+01
  -3.770  0.0000E+00  0.8000E+01
  -3.760  0.0000E+00  0.8000E+01
  -3.750  0.0000E+00  0.8000E+01
  -3.740  0.0000E+00  0.8000E+01
  -3.730  0.0000E+00  0.8000E+01
  -3.720  0.0000E+00  0.8000E+01
  -3.710  0.0000E+00  0.8000E+01
  -3.700  0.0000E+00  0.8000E+01
  -3.690  0.0000E+00  0.8000E+01
  -3.680  0.0000E+00  0.8000E+01
  -3.670  0.0000E+00  0.8000E+01
  -3.660  0.0000E+00  0.8000E+01
  -3.650  0.0000E+00  0.8000E+01
  -3.640  0.0000E+00  0.8000E+01
  -3.630  0.0000E+00  0.8000E+01
  -3.620  0.0000E+00  0.8000E+01
  -3.610  0.0000E+00  0.8000E+01
  -3.600  0.0000E+00  0.8000E+01
  -3.590  0.0000E+00  0.8000E+01
  -3.580  0.0000E+00  0.8000E+01
  -3.570  0.0000E+00  0.8000E+01
  -3.560  0.0000E+00  0.8000E+01
  -3.550  0.0000E+00  0.8000E+01
  -3.540  0.0000E+00  0.8000E+01
  -3.530  0.0000E+00  0.8000E+01
  -3.520  0.0000E+00  0.8000E+01
  -3.510  0.0000E+00  0.8000E+01
  -3.500  0.0000E+00  0.8000E+01
  -3.490  0.0000E+00  0.8000E+01
  -3.480  0.0000E+00  0.8000E+01
  -3.470  0.0000E+00  0.8000E+01
  -3.460  0.0000E+00  0.8000E+01
  -3.450  0.0000E+00  0.8000E+01
  -3.440  0.0000E+00  0.8000E+01
  -3.430  0.0000E+00  0.8000E+01
  -3.420  0.0000E+00  0.8000E+01
  -3.410  0.0000E+00  0.8000E+01
  -3.400  0.0000E+00  0.8000E+01
  -3.390  0.0000E+00  0.8000E+01
  -3.380  0.0000E+00  0.8000E+01
  -3.370  0.0000E+00  0.8000E+01
  -3.360  0.0000E+00  0.8000E+01
  -3.350  0.0000E+00  0.8000E+01
  -3.340  0.0000E+00  0.8000E+01
  -3.330  0.0000E+00  0.8000E+01
  -3.320  0.0000E+00  0.8000E+01
  -3.310  0.0000E+00  0.8000E+01
  -3.300  0.0000E+00  0.8000E+01
  -3.290  0.0000E+00  0.8000E+01
  -3.280  0.0000E+00  0.8000E+01
  -3.270  0.0000E+00  0.8000E+01
  -3.260  0.0000E+00  0.8000E+01
  -3.250  0.0000E+00  0.8000E+01
  -3.240  0.0000E+00  0.8000E+01
  -3.230  0.0000E+00  0.8000E+01
  -3.220  0.0000E+00  0.8000E+01
  -3.210  0.0000E+00  0.8000E+01
  -3.200  0.0000E+00  0.8000E+01
  -3.190  0.0000E+00  0.8000E+01
  -3.180  0.0000E+00  0.8000E+01
  -3.170  0.0000E+00  0.8000E+01
  -3.160  0.0000E+00  0.8000E+01
  -3.150  0.0000E+00  0.8000E+01
  -3.140  0.0000E+00  0.8000E+01
  -3.130  0.0000E+00  0.8000E+01
  -3.120  0.0000E+00  0.8000E+01
  -3.110  0.0000E+00  0.8000E+01
  -3.100  0.0000E+00  0.8000E+01
  -3.090  0.0000E+00  0.8000E+01
  -3.080  0.0000E+00  0.8000E+01
  -3.070  0.0000E+00  0.8000E+01
  -3.060  0.0000E+00  0.8000E+01
  -3.050  0.0000E+00  0.8000E+01
  -3.040  0.0000E+00  0.8000E+01
  -3.030  0.0000E+00  0.8000E+01
  -3.020  0.0000E+00  0.8000E+01
  -3.010  0.0000E+00  0.8000E+01
  -3.000  0.0000E+00  0.8000E+01
  -2.990  0.0000E+00  0.8000E+01
  -2.980  0.0000E+00  0.8000E+01
  -2.970  0.0000E+00  0.8000E+01
  -2.960  0.0000E+00  0.8000E+01
  -2.950  0.0000E+00  0.8000E+01
  -2.940  0.0000E+00  0.8000E+01
  -2.930  0.0000E+00  0.8000E+01
  -2.920  0.0000E+00  0.8000E+01
  -2.910  0.0000E+00  0.8000E+01
  -2.900  0.0000E+00  0.8000E+01
  -2.890  0.0000E+00  0.8000E+01
  -2.880  0.0000E+00  0.8000E+01
  -2.870  0.0000E+00  0.8000E+01
  -2.860  0.0000E+00  0.8000E+01
  -2.850  0.0000E+00  0.8000E+01
  -2.840  0.0000E+00  0.8000E+01
  -2.830  0.0000E+00  0.8000E+01
  -2.820  0.0000E+00  0.8000E+01
  -2.810  0.0000E+00  0.8000E+01
  -2.800  0.0000E+00  0.8000E+01
  -2.790  0.0000E+00  0.8000E+01
  -2.780  0.0000E+00  0.8000E+01
  -2.770  0.0000E+00  0.8000E+01
  -2.760  0.0000E+00  0.8000E+01
  -2.750  0.0000E+00  0.8000E+01
  -2.740  0.0000E+00  0.8000E+01
  -2.730  0.0000E+00  0.8000E+01
  -2.720  0.0000E+00  0.8000E+01
  -2.710  0.0000E+00  0.8000E+01
  -2.700  0.0000E+00  0.8000E+01
  -2.690  0.0000E+00  0.8000E+01
  -2.680  0.0000E+00  0.8000E+01
  -2.670  0.0000E+00  0.8000E+01
  -2.660  0.0000E+00  0.8000E+01
  -2.650  0.0000E+00  0.8000E+01
  -2.640  0.0000E+00  0.8000E+01
  -2.630  0.0000E+00  0.8000E+01
  -2.620  0.0000E+00  0.8000E+01
  -2.610  0.0000E+00  0.8000E+01
  -2.600  0.0000E+00  0.8000E+01
  -2.590  0.0000E+00  0.8000E+01
  -2.580  0.0000E+00  0.8000E+01
  -2.570  0.0000E+00  0.8000E+01
  -2.560  0.0000E+00  0.8000E+01
  -2.550  0.0000E+00  0.8000E+01
  -2.540  0.0000E+00  0.8000E+01
  -2.530  0.0000E+00  0.8000E+01
  -2.520  0.0000E+00  0.8000E+01
  -2.510  0.0000E+00  0.8000E+01
  -2.500  0.0000E+00  0.8000E+01
  -2.490  0.0000E+00  0.8000E+01
  -2.480  0.0000E+00  0.8000E+01
  -2.470  0.0000E+00  0.8000E+01
  -2.460  0.0000E+00  0.8000E+01
  -2.450  0.0000E+00  0.8000E+01
  -2.440  0.0000E+00  0.8000E+01
  -2.430  0.0000E+00  0.8000E+01
  -2.420  0.0000E+00  0.8000E+01
  -2.410  0.0000E+00  0.8000E+01
  -2.400  0.0000E+00  0.8000E+01
  -2.390  0.0000E+00  0.8000E+01
  -2.380  0.0000E+00  0.8000E+01
  -2.370  0.0000E+00  0.8000E+01
  -2.360  0.0000E+00  0.8000E+01
  -2.350  0.0000E+00  0.8000E+01
  -2.340  0.0000E+00  0.8000E+01
  -2.330  0.0000E+00  0.8000E+01
  -2.320  0.0000E+00  0.8000E+01
  -2.310  0.0000E+00  0.8000E+01
  -2.300  0.0000E+00  0.8000E+01
  -2.290  0.0000E+00  0.8000E+01
  -2.280  0.0000E+00  0.8000E+01
  -2.270  0.0000E+00  0.8000E+01
  -2.260  0.0000E+00  0.8000E+01
  -2.250  0.0000E+00  0.8000E+01
  -2.240  0.0000E+00  0.8000E+01
  -2.230  0.0000E+00  0.8000E+01
  -2.220  0.0000E+00  0.8000E+01
  -2.210  0.0000E+00  0.8000E+01
  -2.200  0.0000E+00  0.8000E+01
  -2.190  0.0000E+00  0.8000E+01
  -2.180  0.0000E+00  0.8000E+01
  -2.170  0.0000E+00  0.8000E+01
  -2.160  0.0000E+00  0.8000E+01
  -2.150  0.6324E-01  0.8000E+01
  -2.140  0.7376E+00  0.8004E+01
  -2.130  0.1462E+01  0.8017E+01
  -2.120  0.1465E+01  0.8032E+01
  -2.110  0.1481E+01  0.8047E+01
  -2.100  0.1568E+01  0.8062E+01
  -2.090  0.1526E+01  0.8078E+01
  -2.080  0.1547E+01  0.8093E+01
  -2.070  0.1593E+01  0.8108E+01
  -2.060  0.1536E+01  0.8124E+01
  -2.050  0.1546E+01  0.8139E+01
  -2.040  0.1621E+01  0.8155E+01
  -2.030  0.1606E+01  0.8172E+01
  -2.020  0.1579E+01  0.8187E+01
  -2.010  0.1596E+01  0.8203E+01
  -2.000  0.1656E+01  0.8219E+01
  -1.990  0.1670E+01  0.8236E+01
  -1.980  0.1627E+01  0.8253E+01
  -1.970  0.1647E+01  0.8269E+01
  -1.960  0.1676E+01  0.8286E+01
  -1.950  0.1724E+01  0.8303E+01
  -1.940  0.1723E+01  0.8320E+01
  -1.930  0.1703E+01  0.8337E+01
  -1.920  0.1733E+01  0.8354E+01
  -1.910  0.2345E+01  0.8374E+01
  -1.900  0.2524E+01  0.8398E+01
  -1.890  0.2639E+01  0.8424E+01
  -1.880  0.2750E+01  0.8450E+01
  -1.870  0.2895E+01  0.8478E+01
  -1.860  0.3029E+01  0.8508E+01
  -1.850  0.3228E+01  0.8539E+01
  -1.840  0.3401E+01  0.8573E+01
  -1.830  0.3481E+01  0.8607E+01
  -1.820  0.3499E+01  0.8642E+01
  -1.810  0.3594E+01  0.8677E+01
  -1.800  0.3615E+01  0.8713E+01
  -1.790  0.3663E+01  0.8750E+01
  -1.780  0.3745E+01  0.8787E+01
  -1.770  0.3894E+01  0.8825E+01
  -1.760  0.4068E+01  0.8865E+01
  -1.750  0.4253E+01  0.8906E+01
  -1.740  0.4451E+01  0.8950E+01
  -1.730  0.4718E+01  0.8996E+01
  -1.720  0.4942E+01  0.9044E+01
  -1.710  0.5287E+01  0.9095E+01
  -1.700  0.5613E+01  0.9149E+01
  -1.690  0.6310E+01  0.9208E+01
  -1.680  0.7409E+01  0.9282E+01
  -1.670  0.6546E+01  0.9351E+01
  -1.660  0.6109E+01  0.9414E+01
  -1.650  0.5971E+01  0.9475E+01
  -1.640  0.5724E+01  0.9533E+01
  -1.630  0.5669E+01  0.9590E+01
  -1.620  0.5615E+01  0.9647E+01
  -1.610  0.5495E+01  0.9702E+01
  -1.600  0.5479E+01  0.9757E+01
  -1.590  0.5439E+01  0.9812E+01
  -1.580  0.5404E+01  0.9866E+01
  -1.570  0.5354E+01  0.9920E+01
  -1.560  0.5349E+01  0.9973E+01
  -1.550  0.5418E+01  0.1003E+02
  -1.540  0.5384E+01  0.1008E+02
  -1.530  0.5378E+01  0.1013E+02
  -1.520  0.5398E+01  0.1019E+02
  -1.510  0.5527E+01  0.1024E+02
  -1.500  0.5520E+01  0.1030E+02
  -1.490  0.5572E+01  0.1035E+02
  -1.480  0.5564E+01  0.1041E+02
  -1.470  0.5567E+01  0.1046E+02
  -1.460  0.6449E+01  0.1052E+02
  -1.450  0.7231E+01  0.1059E+02
  -1.440  0.8243E+01  0.1067E+02
  -1.430  0.8184E+01  0.1075E+02
  -1.420  0.7599E+01  0.1083E+02
  -1.410  0.7259E+01  0.1091E+02
  -1.400  0.7103E+01  0.1098E+02
  -1.390  0.6989E+01  0.1105E+02
  -1.380  0.6898E+01  0.1112E+02
  -1.370  0.6884E+01  0.1119E+02
  -1.360  0.6878E+01  0.1125E+02
  -1.350  0.6922E+01  0.1132E+02
  -1.340  0.6970E+01  0.1139E+02
  -1.330  0.7150E+01  0.1146E+02
  -1.320  0.7450E+01  0.1154E+02
  -1.310  0.7664E+01  0.1161E+02
  -1.300  0.7655E+01  0.1169E+02
  -1.290  0.7585E+01  0.1177E+02
  -1.280  0.6937E+01  0.1184E+02
  -1.270  0.6591E+01  0.1191E+02
  -1.260  0.6400E+01  0.1197E+02
  -1.250  0.6179E+01  0.1203E+02
  -1.240  0.6010E+01  0.1210E+02
  -1.230  0.5891E+01  0.1215E+02
  -1.220  0.5809E+01  0.1221E+02
  -1.210  0.5744E+01  0.1227E+02
  -1.200  0.5450E+01  0.1233E+02
  -1.190  0.5408E+01  0.1238E+02
  -1.180  0.5432E+01  0.1244E+02
  -1.170  0.5471E+01  0.1249E+02
  -1.160  0.5447E+01  0.1255E+02
  -1.150  0.4841E+01  0.1260E+02
  -1.140  0.4856E+01  0.1264E+02
  -1.130  0.4882E+01  0.1269E+02
  -1.120  0.4922E+01  0.1274E+02
  -1.110  0.5064E+01  0.1279E+02
  -1.100  0.5232E+01  0.1284E+02
  -1.090  0.5464E+01  0.1290E+02
  -1.080  0.5795E+01  0.1295E+02
  -1.070  0.6097E+01  0.1301E+02
  -1.060  0.6761E+01  0.1308E+02
  -1.050  0.7472E+01  0.1315E+02
  -1.040  0.7304E+01  0.1322E+02
  -1.030  0.6757E+01  0.1329E+02
  -1.020  0.6426E+01  0.1336E+02
  -1.010  0.6301E+01  0.1342E+02
  -1.000  0.6268E+01  0.1349E+02
  -0.990  0.6440E+01  0.1355E+02
  -0.980  0.6684E+01  0.1362E+02
  -0.970  0.7627E+01  0.1369E+02
  -0.960  0.1039E+02  0.1377E+02
  -0.950  0.7032E+01  0.1388E+02
  -0.940  0.3971E+01  0.1392E+02
  -0.930  0.3244E+01  0.1396E+02
  -0.920  0.2706E+01  0.1399E+02
  -0.910  0.2506E+01  0.1401E+02
  -0.900  0.2467E+01  0.1404E+02
  -0.890  0.2431E+01  0.1406E+02
  -0.880  0.3488E+01  0.1409E+02
  -0.870  0.3353E+01  0.1413E+02
  -0.860  0.2907E+01  0.1416E+02
  -0.850  0.2714E+01  0.1419E+02
  -0.840  0.2637E+01  0.1421E+02
  -0.830  0.2615E+01  0.1424E+02
  -0.820  0.2604E+01  0.1426E+02
  -0.810  0.2599E+01  0.1429E+02
  -0.800  0.2595E+01  0.1432E+02
  -0.790  0.2589E+01  0.1434E+02
  -0.780  0.2595E+01  0.1437E+02
  -0.770  0.2591E+01  0.1439E+02
  -0.760  0.2724E+01  0.1442E+02
  -0.750  0.2864E+01  0.1445E+02
  -0.740  0.2906E+01  0.1448E+02
  -0.730  0.2997E+01  0.1451E+02
  -0.720  0.3008E+01  0.1454E+02
  -0.710  0.3042E+01  0.1457E+02
  -0.700  0.3113E+01  0.1460E+02
  -0.690  0.3177E+01  0.1463E+02
  -0.680  0.3881E+01  0.1466E+02
  -0.670  0.4075E+01  0.1470E+02
  -0.660  0.4474E+01  0.1475E+02
  -0.650  0.5188E+01  0.1480E+02
  -0.640  0.6181E+01  0.1485E+02
  -0.630  0.1022E+02  0.1493E+02
  -0.620  0.4863E+01  0.1500E+02
  -0.610  0.4005E+01  0.1504E+02
  -0.600  0.3444E+01  0.1508E+02
  -0.590  0.3035E+01  0.1511E+02
  -0.580  0.2685E+01  0.1514E+02
  -0.570  0.2351E+01  0.1517E+02
  -0.560  0.2174E+01  0.1519E+02
  -0.550  0.2201E+01  0.1521E+02
  -0.540  0.2224E+01  0.1523E+02
  -0.530  0.2237E+01  0.1525E+02
  -0.520  0.2242E+01  0.1528E+02
  -0.510  0.2237E+01  0.1530E+02
  -0.500  0.2235E+01  0.1532E+02
  -0.490  0.2245E+01  0.1534E+02
  -0.480  0.2262E+01  0.1537E+02
  -0.470  0.2269E+01  0.1539E+02
  -0.460  0.2281E+01  0.1541E+02
  -0.450  0.2299E+01  0.1544E+02
  -0.440  0.2319E+01  0.1546E+02
  -0.430  0.2437E+01  0.1548E+02
  -0.420  0.2515E+01  0.1551E+02
  -0.410  0.2554E+01  0.1553E+02
  -0.400  0.2599E+01  0.1556E+02
  -0.390  0.2615E+01  0.1558E+02
  -0.380  0.2635E+01  0.1561E+02
  -0.370  0.2645E+01  0.1564E+02
  -0.360  0.2675E+01  0.1566E+02
  -0.350  0.2700E+01  0.1569E+02
  -0.340  0.2726E+01  0.1572E+02
  -0.330  0.2753E+01  0.1574E+02
  -0.320  0.2766E+01  0.1577E+02
  -0.310  0.2765E+01  0.1580E+02
  -0.300  0.2782E+01  0.1583E+02
  -0.290  0.2813E+01  0.1586E+02
  -0.280  0.2848E+01  0.1588E+02
  -0.270  0.2890E+01  0.1591E+02
  -0.260  0.2913E+01  0.1594E+02
  -0.250  0.2930E+01  0.1597E+02
  -0.240  0.2942E+01  0.1600E+02
  -0.230  0.2962E+01  0.1603E+02
  -0.220  0.2985E+01  0.1606E+02
  -0.210  0.3015E+01  0.1609E+02
  -0.200  0.3055E+01  0.1612E+02
  -0.190  0.3091E+01  0.1615E+02
  -0.180  0.3124E+01  0.1618E+02
  -0.170  0.3143E+01  0.1621E+02
  -0.160  0.3167E+01  0.1624E+02
  -0.150  0.3199E+01  0.1628E+02
  -0.140  0.3241E+01  0.1631E+02
  -0.130  0.3275E+01  0.1634E+02
  -0.120  0.3314E+01  0.1637E+02
  -0.110  0.3358E+01  0.1641E+02
  -0.100  0.3412E+01  0.1644E+02
  -0.090  0.3457E+01  0.1648E+02
  -0.080  0.3494E+01  0.1651E+02
  -0.070  0.3535E+01  0.1655E+02
  -0.060  0.3625E+01  0.1658E+02
  -0.050  0.3753E+01  0.1662E+02
  -0.040  0.3913E+01  0.1666E+02
  -0.030  0.4057E+01  0.1670E+02
  -0.020  0.4175E+01  0.1674E+02
  -0.010  0.4274E+01  0.1678E+02
   0.000  0.4363E+01  0.1682E+02
   0.010  0.4452E+01  0.1687E+02
   0.020  0.4534E+01  0.1691E+02
   0.030  0.4625E+01  0.1696E+02
   0.040  0.4712E+01  0.1700E+02
   0.050  0.4801E+01  0.1705E+02
   0.060  0.4897E+01  0.1710E+02
   0.070  0.4995E+01  0.1715E+02
   0.080  0.5090E+01  0.1720E+02
   0.090  0.5189E+01  0.1725E+02
   0.100  0.5283E+01  0.1730E+02
   0.110  0.5390E+01  0.1736E+02
   0.120  0.6349E+01  0.1742E+02
   0.130  0.6591E+01  0.1748E+02
   0.140  0.7061E+01  0.1755E+02
   0.150  0.6543E+01  0.1762E+02
   0.160  0.6337E+01  0.1768E+02
   0.170  0.6146E+01  0.1774E+02
   0.180  0.6108E+01  0.1780E+02
   0.190  0.6099E+01  0.1786E+02
   0.200  0.6123E+01  0.1793E+02
   0.210  0.6145E+01  0.1799E+02
   0.220  0.6200E+01  0.1805E+02
   0.230  0.6290E+01  0.1811E+02
   0.240  0.6386E+01  0.1817E+02
   0.250  0.6467E+01  0.1824E+02
   0.260  0.6519E+01  0.1830E+02
   0.270  0.6581E+01  0.1837E+02
   0.280  0.6614E+01  0.1844E+02
   0.290  0.6662E+01  0.1850E+02
   0.300  0.6703E+01  0.1857E+02
   0.310  0.6773E+01  0.1864E+02
   0.320  0.6781E+01  0.1870E+02
   0.330  0.6477E+01  0.1877E+02
   0.340  0.6595E+01  0.1883E+02
   0.350  0.6561E+01  0.1890E+02
   0.360  0.6577E+01  0.1897E+02
   0.370  0.6695E+01  0.1903E+02
   0.380  0.6777E+01  0.1910E+02
   0.390  0.6868E+01  0.1917E+02
   0.400  0.7166E+01  0.1924E+02
   0.410  0.7822E+01  0.1931E+02
   0.420  0.7938E+01  0.1939E+02
   0.430  0.8589E+01  0.1947E+02
   0.440  0.9115E+01  0.1956E+02
   0.450  0.8687E+01  0.1965E+02
   0.460  0.8646E+01  0.1974E+02
   0.470  0.8653E+01  0.1982E+02
   0.480  0.1033E+02  0.1992E+02
   0.490  0.1140E+02  0.2002E+02
   0.500  0.1170E+02  0.2014E+02
   0.510  0.1033E+02  0.2025E+02
   0.520  0.9752E+01  0.2035E+02
   0.530  0.9576E+01  0.2045E+02
   0.540  0.1001E+02  0.2055E+02
   0.550  0.1052E+02  0.2065E+02
   0.560  0.1086E+02  0.2076E+02
   0.570  0.9719E+01  0.2086E+02
   0.580  0.9278E+01  0.2095E+02
   0.590  0.8911E+01  0.2104E+02
   0.600  0.9381E+01  0.2113E+02
   0.610  0.9761E+01  0.2123E+02
   0.620  0.9801E+01  0.2133E+02
   0.630  0.9380E+01  0.2143E+02
   0.640  0.9194E+01  0.2152E+02
   0.650  0.9066E+01  0.2161E+02
   0.660  0.9451E+01  0.2170E+02
   0.670  0.9793E+01  0.2180E+02
   0.680  0.9444E+01  0.2189E+02
   0.690  0.9229E+01  0.2199E+02
   0.700  0.9276E+01  0.2208E+02
   0.710  0.9360E+01  0.2217E+02
   0.720  0.9375E+01  0.2227E+02
   0.730  0.9378E+01  0.2236E+02
   0.740  0.9588E+01  0.2246E+02
   0.750  0.9747E+01  0.2255E+02
   0.760  0.1039E+02  0.2265E+02
   0.770  0.1104E+02  0.2276E+02
   0.780  0.1043E+02  0.2287E+02
   0.790  0.9833E+01  0.2297E+02
   0.800  0.9675E+01  0.2307E+02
   0.810  0.9815E+01  0.2316E+02
   0.820  0.1010E+02  0.2326E+02
   0.830  0.1102E+02  0.2337E+02
   0.840  0.1126E+02  0.2348E+02
   0.850  0.1221E+02  0.2360E+02
   0.860  0.1305E+02  0.2372E+02
   0.870  0.1196E+02  0.2385E+02
   0.880  0.1044E+02  0.2396E+02
   0.890  0.9900E+01  0.2406E+02
   0.900  0.9725E+01  0.2416E+02
   0.910  0.9600E+01  0.2426E+02
   0.920  0.9179E+01  0.2435E+02
   0.930  0.9076E+01  0.2444E+02
   0.940  0.8549E+01  0.2453E+02
   0.950  0.8545E+01  0.2462E+02
   0.960  0.9110E+01  0.2471E+02
   0.970  0.9565E+01  0.2480E+02
   0.980  0.1024E+02  0.2490E+02
   0.990  0.1034E+02  0.2500E+02
   1.000  0.1010E+02  0.2511E+02
   1.010  0.9583E+01  0.2521E+02
   1.020  0.9381E+01  0.2530E+02
   1.030  0.9007E+01  0.2539E+02
   1.040  0.8856E+01  0.2548E+02
   1.050  0.8275E+01  0.2557E+02
   1.060  0.7598E+01  0.2565E+02
   1.070  0.7737E+01  0.2572E+02
   1.080  0.7428E+01  0.2580E+02
   1.090  0.7224E+01  0.2587E+02
   1.100  0.7028E+01  0.2594E+02
   1.110  0.6553E+01  0.2601E+02
   1.120  0.6294E+01  0.2608E+02
   1.130  0.6135E+01  0.2614E+02
   1.140  0.6137E+01  0.2620E+02
   1.150  0.6039E+01  0.2626E+02
   1.160  0.5989E+01  0.2632E+02
   1.170  0.5930E+01  0.2638E+02
   1.180  0.5965E+01  0.2644E+02
   1.190  0.5985E+01  0.2650E+02
   1.200  0.6114E+01  0.2656E+02
   1.210  0.6228E+01  0.2662E+02
   1.220  0.6748E+01  0.2669E+02
   1.230  0.7283E+01  0.2676E+02
   1.240  0.9276E+01  0.2684E+02
   1.250  0.8248E+01  0.2692E+02
   1.260  0.6937E+01  0.2700E+02
   1.270  0.6002E+01  0.2706E+02
   1.280  0.6850E+01  0.2713E+02
   1.290  0.6938E+01  0.2720E+02
   1.300  0.6282E+01  0.2726E+02
   1.310  0.5992E+01  0.2732E+02
   1.320  0.5881E+01  0.2738E+02
   1.330  0.5914E+01  0.2744E+02
   1.340  0.5754E+01  0.2750E+02
   1.350  0.5671E+01  0.2756E+02
   1.360  0.4362E+01  0.2761E+02
   1.370  0.4349E+01  0.2765E+02
   1.380  0.4459E+01  0.2769E+02
   1.390  0.4542E+01  0.2774E+02
   1.400  0.4750E+01  0.2779E+02
   1.410  0.6673E+01  0.2783E+02
   1.420  0.3960E+01  0.2788E+02
   1.430  0.3966E+01  0.2792E+02
   1.440  0.3971E+01  0.2796E+02
   1.450  0.3987E+01  0.2800E+02
   1.460  0.4016E+01  0.2804E+02
   1.470  0.4017E+01  0.2808E+02
   1.480  0.3993E+01  0.2812E+02
   1.490  0.3934E+01  0.2816E+02
   1.500  0.3791E+01  0.2819E+02
   1.510  0.3725E+01  0.2823E+02
   1.520  0.3671E+01  0.2827E+02
   1.530  0.3640E+01  0.2831E+02
   1.540  0.3616E+01  0.2834E+02
   1.550  0.3585E+01  0.2838E+02
   1.560  0.3586E+01  0.2841E+02
   1.570  0.3580E+01  0.2845E+02
   1.580  0.3584E+01  0.2849E+02
   1.590  0.3603E+01  0.2852E+02
   1.600  0.3588E+01  0.2856E+02
   1.610  0.3612E+01  0.2859E+02
   1.620  0.3644E+01  0.2863E+02
   1.630  0.3669E+01  0.2867E+02
   1.640  0.3710E+01  0.2870E+02
   1.650  0.3723E+01  0.2874E+02
   1.660  0.3784E+01  0.2878E+02
   1.670  0.3851E+01  0.2882E+02
   1.680  0.3887E+01  0.2886E+02
   1.690  0.3974E+01  0.2889E+02
   1.700  0.4075E+01  0.2893E+02
   1.710  0.4151E+01  0.2898E+02
   1.720  0.4296E+01  0.2902E+02
   1.730  0.3855E+01  0.2906E+02
   1.740  0.3150E+01  0.2909E+02
   1.750  0.3348E+01  0.2912E+02
   1.760  0.3643E+01  0.2916E+02
   1.770  0.3897E+01  0.2920E+02
   1.780  0.4099E+01  0.2924E+02
   1.790  0.4311E+01  0.2928E+02
   1.800  0.4525E+01  0.2932E+02
   1.810  0.4739E+01  0.2937E+02
   1.820  0.4936E+01  0.2942E+02
   1.830  0.5185E+01  0.2947E+02
   1.840  0.5565E+01  0.2952E+02
   1.850  0.6204E+01  0.2958E+02
   1.860  0.7402E+01  0.2965E+02
   1.870  0.6171E+01  0.2972E+02
   1.880  0.5857E+01  0.2978E+02
   1.890  0.5782E+01  0.2984E+02
   1.900  0.5719E+01  0.2989E+02
   1.910  0.5869E+01  0.2995E+02
   1.920  0.6062E+01  0.3001E+02
   1.930  0.7077E+01  0.3008E+02
   1.940  0.1075E+02  0.3018E+02
   1.950  0.1371E+01  0.3024E+02
   1.960  0.1426E+01  0.3025E+02
   1.970  0.1482E+01  0.3027E+02
   1.980  0.1543E+01  0.3028E+02
   1.990  0.1604E+01  0.3030E+02
   2.000  0.1670E+01  0.3031E+02
   2.010  0.1734E+01  0.3033E+02
   2.020  0.1811E+01  0.3035E+02
   2.030  0.1886E+01  0.3037E+02
   2.040  0.1965E+01  0.3038E+02
   2.050  0.2053E+01  0.3040E+02
   2.060  0.2140E+01  0.3043E+02
   2.070  0.2244E+01  0.3045E+02
   2.080  0.2352E+01  0.3047E+02
   2.090  0.2474E+01  0.3049E+02
   2.100  0.2601E+01  0.3052E+02
   2.110  0.2754E+01  0.3055E+02
   2.120  0.2928E+01  0.3058E+02
   2.130  0.3115E+01  0.3061E+02
   2.140  0.3361E+01  0.3064E+02
   2.150  0.3631E+01  0.3067E+02
   2.160  0.4002E+01  0.3071E+02
   2.170  0.4466E+01  0.3075E+02
   2.180  0.5279E+01  0.3080E+02
   2.190  0.7280E+01  0.3086E+02
   2.200  0.9656E+01  0.3096E+02
   2.210  0.9966E+01  0.3106E+02
   2.220  0.1063E+02  0.3117E+02
   2.230  0.1154E+02  0.3128E+02
   2.240  0.1278E+02  0.3140E+02
   2.250  0.1432E+02  0.3153E+02
   2.260  0.1675E+02  0.3168E+02
   2.270  0.1439E+02  0.3185E+02
   2.280  0.5832E+01  0.3196E+02
   2.290  0.1590E+01  0.3200E+02
   2.300  0.0000E+00  0.3200E+02
   2.310  0.0000E+00  0.3200E+02
   2.320  0.0000E+00  0.3200E+02
   2.330  0.0000E+00  0.3200E+02
   2.340  0.0000E+00  0.3200E+02
   2.350  0.0000E+00  0.3200E+02
   2.360  0.0000E+00  0.3200E+02
   2.370  0.0000E+00  0.3200E+02
   2.380  0.0000E+00  0.3200E+02
   2.390  0.0000E+00  0.3200E+02
   2.400  0.0000E+00  0.3200E+02
   2.410  0.0000E+00  0.3200E+02
   2.420  0.0000E+00  0.3200E+02
   2.430  0.0000E+00  0.3200E+02
   2.440  0.0000E+00  0.3200E+02
   2.450  0.0000E+00  0.3200E+02
   2.460  0.0000E+00  0.3200E+02
   2.470  0.0000E+00  0.3200E+02
   2.480  0.0000E+00  0.3200E+02
   2.490  0.0000E+00  0.3200E+02
   2.500  0.0000E+00  0.3200E+02
   2.510  0.0000E+00  0.3200E+02
   2.520  0.0000E+00  0.3200E+02
   2.530  0.0000E+00  0.3200E+02
   2.540  0.0000E+00  0.3200E+02
   2.550  0.0000E+00  0.3200E+02
   2.560  0.0000E+00  0.3200E+02
   2.570  0.0000E+00  0.3200E+02
   2.580  0.0000E+00  0.3200E+02
   2.590  0.0000E+00  0.3200E+02
   2.600  0.0000E+00  0.3200E+02
   2.610  0.0000E+00  0.3200E+02
   2.620  0.0000E+00  0.3200E+02
   2.630  0.0000E+00  0.3200E+02
   2.640  0.0000E+00  0.3200E+02
   2.650  0.0000E+00  0.3200E+02
   2.660  0.0000E+00  0.3200E+02
   2.670  0.0000E+00  0.3200E+02
   2.680  0.0000E+00  0.3200E+02
   2.690  0.0000E+00  0.3200E+02
   2.700  0.0000E+00  0.3200E+02
   2.710  0.0000E+00  0.3200E+02
   2.720  0.0000E+00  0.3200E+02
   2.730  0.0000E+00  0.3200E+02
   2.740  0.0000E+00  0.3200E+02
   2.750  0.0000E+00  0.3200E+02
   2.760  0.0000E+00  0.3200E+02
   2.770  0.0000E+00  0.3200E+02
   2.780  0.0000E+00  0.3200E+02
   2.790  0.0000E+00  0.3200E+02
   2.800  0.0000E+00  0.3200E+02
   2.810  0.0000E+00  0.3200E+02
   2.820  0.0000E+00  0.3200E+02
   2.830  0.0000E+00  0.3200E+02
   2.840  0.0000E+00  0.3200E+02
   2.850  0.0000E+00  0.3200E+02
   2.860  0.0000E+00  0.3200E+02
   2.870  0.0000E+00  0.3200E+02
   2.880  0.0000E+00  0.3200E+02
   2.890  0.0000E+00  0.3200E+02
   2.900  0.4708E-04  0.3200E+02
   2.910  0.7313E-03  0.3200E+02
   2.920  0.3336E-02  0.3200E+02
   2.930  0.4948E-02  0.3200E+02
   2.940  0.6743E-02  0.3200E+02
   2.950  0.8721E-02  0.3200E+02
   2.960  0.1088E-01  0.3200E+02
   2.970  0.1353E-01  0.3200E+02
   2.980  0.1575E-01  0.3200E+02
   2.990  0.1780E-01  0.3200E+02
   3.000  0.1997E-01  0.3200E+02
   3.010  0.2228E-01  0.3200E+02
   3.020  0.2473E-01  0.3200E+02
   3.030  0.2731E-01  0.3200E+02
   3.040  0.2999E-01  0.3200E+02
   3.050  0.3263E-01  0.3200E+02
   3.060  0.3523E-01  0.3200E+02
   3.070  0.3781E-01  0.3200E+02
   3.080  0.4041E-01  0.3200E+02
   3.090  0.4312E-01  0.3200E+02
   3.100  0.4596E-01  0.3200E+02
   3.110  0.4892E-01  0.3200E+02
   3.120  0.5201E-01  0.3201E+02
   3.130  0.5517E-01  0.3201E+02
   3.140  0.5820E-01  0.3201E+02
   3.150  0.6136E-01  0.3201E+02
   3.160  0.6457E-01  0.3201E+02
   3.170  0.6781E-01  0.3201E+02
   3.180  0.7110E-01  0.3201E+02
   3.190  0.7443E-01  0.3201E+02
   3.200  0.7789E-01  0.3201E+02
   3.210  0.8148E-01  0.3201E+02
   3.220  0.8521E-01  0.3201E+02
   3.230  0.8907E-01  0.3201E+02
   3.240  0.9289E-01  0.3201E+02
   3.250  0.9671E-01  0.3201E+02
   3.260  0.1006E+00  0.3202E+02
   3.270  0.1046E+00  0.3202E+02
   3.280  0.1087E+00  0.3202E+02
   3.290  0.1129E+00  0.3202E+02
   3.300  0.1171E+00  0.3202E+02
   3.310  0.1215E+00  0.3202E+02
   3.320  0.1259E+00  0.3202E+02
   3.330  0.1312E+00  0.3202E+02
   3.340  0.1732E+00  0.3203E+02
   3.350  0.1860E+00  0.3203E+02
   3.360  0.1960E+00  0.3203E+02
   3.370  0.2057E+00  0.3203E+02
   3.380  0.2130E+00  0.3203E+02
   3.390  0.2018E+00  0.3204E+02
   3.400  0.2090E+00  0.3204E+02
   3.410  0.2160E+00  0.3204E+02
   3.420  0.2228E+00  0.3204E+02
   3.430  0.2231E+00  0.3204E+02
   3.440  0.2229E+00  0.3205E+02
   3.450  0.2229E+00  0.3205E+02
   3.460  0.2279E+00  0.3205E+02
   3.470  0.2340E+00  0.3205E+02
   3.480  0.2401E+00  0.3206E+02
   3.490  0.2442E+00  0.3206E+02
   3.500  0.2387E+00  0.3206E+02
   3.510  0.2454E+00  0.3206E+02
   3.520  0.2481E+00  0.3207E+02
   3.530  0.2509E+00  0.3207E+02
   3.540  0.2557E+00  0.3207E+02
   3.550  0.2617E+00  0.3207E+02
   3.560  0.2676E+00  0.3208E+02
   3.570  0.2678E+00  0.3208E+02
   3.580  0.2686E+00  0.3208E+02
   3.590  0.2736E+00  0.3208E+02
   3.600  0.2774E+00  0.3209E+02
   3.610  0.2813E+00  0.3209E+02
   3.620  0.2852E+00  0.3209E+02
   3.630  0.2899E+00  0.3209E+02
   3.640  0.2961E+00  0.3210E+02
   3.650  0.3000E+00  0.3210E+02
   3.660  0.3014E+00  0.3210E+02
   3.670  0.3042E+00  0.3211E+02
   3.680  0.3070E+00  0.3211E+02
   3.690  0.3139E+00  0.3211E+02
   3.700  0.3185E+00  0.3212E+02
   3.710  0.3231E+00  0.3212E+02
   3.720  0.3279E+00  0.3212E+02
   3.730  0.3338E+00  0.3213E+02
   3.740  0.3374E+00  0.3213E+02
   3.750  0.3415E+00  0.3213E+02
   3.760  0.3453E+00  0.3214E+02
   3.770  0.3492E+00  0.3214E+02
   3.780  0.3533E+00  0.3214E+02
   3.790  0.3609E+00  0.3215E+02
   3.800  0.3664E+00  0.3215E+02
   3.810  0.3720E+00  0.3215E+02
   3.820  0.3778E+00  0.3216E+02
   3.830  0.3812E+00  0.3216E+02
   3.840  0.3871E+00  0.3217E+02
   3.850  0.3928E+00  0.3217E+02
   3.860  0.3979E+00  0.3217E+02
   3.870  0.4031E+00  0.3218E+02
   3.880  0.4084E+00  0.3218E+02
   3.890  0.4170E+00  0.3219E+02
   3.900  0.4234E+00  0.3219E+02
   3.910  0.4288E+00  0.3219E+02
   3.920  0.4338E+00  0.3220E+02
   3.930  0.4405E+00  0.3220E+02
   3.940  0.4482E+00  0.3221E+02
   3.950  0.4549E+00  0.3221E+02
   3.960  0.4614E+00  0.3222E+02
   3.970  0.4681E+00  0.3222E+02
   3.980  0.4776E+00  0.3223E+02
   3.990  0.4857E+00  0.3223E+02
   4.000  0.4917E+00  0.3224E+02
   4.010  0.4978E+00  0.3224E+02
   4.020  0.5046E+00  0.3225E+02
   4.030  0.5143E+00  0.3225E+02
   4.040  0.5235E+00  0.3226E+02
   4.050  0.5319E+00  0.3226E+02
   4.060  0.5404E+00  0.3227E+02
   4.070  0.5517E+00  0.3227E+02
   4.080  0.5610E+00  0.3228E+02
   4.090  0.6540E+00  0.3228E+02
   4.100  0.6781E+00  0.3229E+02
   4.110  0.7291E+00  0.3230E+02
   4.120  0.7107E+00  0.3230E+02
   4.130  0.7405E+00  0.3231E+02
   4.140  0.7709E+00  0.3232E+02
   4.150  0.7796E+00  0.3233E+02
   4.160  0.7984E+00  0.3233E+02
   4.170  0.8262E+00  0.3234E+02
   4.180  0.8539E+00  0.3235E+02
   4.190  0.8636E+00  0.3236E+02
   4.200  0.8842E+00  0.3237E+02
   4.210  0.9065E+00  0.3238E+02
   4.220  0.9388E+00  0.3239E+02
   4.230  0.9675E+00  0.3240E+02
   4.240  0.9909E+00  0.3241E+02
   4.250  0.1021E+01  0.3242E+02
   4.260  0.1048E+01  0.3243E+02
   4.270  0.1075E+01  0.3244E+02
   4.280  0.1111E+01  0.3245E+02
   4.290  0.1133E+01  0.3246E+02
   4.300  0.1167E+01  0.3247E+02
   4.310  0.1214E+01  0.3248E+02
   4.320  0.1252E+01  0.3249E+02
   4.330  0.1289E+01  0.3251E+02
   4.340  0.1324E+01  0.3252E+02
   4.350  0.1362E+01  0.3253E+02
   4.360  0.1397E+01  0.3255E+02
   4.370  0.1446E+01  0.3256E+02
   4.380  0.1508E+01  0.3258E+02
   4.390  0.1558E+01  0.3259E+02
   4.400  0.1607E+01  0.3261E+02
   4.410  0.1661E+01  0.3262E+02
   4.420  0.1710E+01  0.3264E+02
   4.430  0.1772E+01  0.3266E+02
   4.440  0.1844E+01  0.3268E+02
   4.450  0.1910E+01  0.3270E+02
   4.460  0.1985E+01  0.3271E+02
   4.470  0.2061E+01  0.3273E+02
   4.480  0.2130E+01  0.3276E+02
   4.490  0.2226E+01  0.3278E+02
   4.500  0.2302E+01  0.3280E+02
   4.510  0.2380E+01  0.3282E+02
   4.520  0.2471E+01  0.3285E+02
   4.530  0.2562E+01  0.3287E+02
   4.540  0.2665E+01  0.3290E+02
   4.550  0.2755E+01  0.3293E+02
   4.560  0.2852E+01  0.3295E+02
   4.570  0.2955E+01  0.3298E+02
   4.580  0.3090E+01  0.3301E+02
   4.590  0.3197E+01  0.3305E+02
   4.600  0.3299E+01  0.3308E+02
   4.610  0.3412E+01  0.3311E+02
   4.620  0.3526E+01  0.3315E+02
   4.630  0.3653E+01  0.3318E+02
   4.640  0.3742E+01  0.3322E+02
   4.650  0.3847E+01  0.3326E+02
   4.660  0.3964E+01  0.3330E+02
   4.670  0.4056E+01  0.3334E+02
   4.680  0.4160E+01  0.3338E+02
   4.690  0.4260E+01  0.3342E+02
   4.700  0.4349E+01  0.3346E+02
   4.710  0.4456E+01  0.3351E+02
   4.720  0.4578E+01  0.3355E+02
   4.730  0.4700E+01  0.3360E+02
   4.740  0.4820E+01  0.3365E+02
   4.750  0.5051E+01  0.3369E+02
   4.760  0.5399E+01  0.3375E+02
   4.770  0.5695E+01  0.3380E+02
   4.780  0.5940E+01  0.3386E+02
   4.790  0.5390E+01  0.3392E+02
   4.800  0.4978E+01  0.3397E+02
   4.810  0.4722E+01  0.3402E+02
   4.820  0.4521E+01  0.3406E+02
   4.830  0.4419E+01  0.3411E+02
   4.840  0.4314E+01  0.3415E+02
   4.850  0.4175E+01  0.3419E+02
   4.860  0.4097E+01  0.3424E+02
   4.870  0.4041E+01  0.3428E+02
   4.880  0.3963E+01  0.3432E+02
   4.890  0.3900E+01  0.3436E+02
   4.900  0.3845E+01  0.3439E+02
   4.910  0.3799E+01  0.3443E+02
   4.920  0.3770E+01  0.3447E+02
   4.930  0.3731E+01  0.3451E+02
   4.940  0.3701E+01  0.3454E+02
   4.950  0.3673E+01  0.3458E+02
   4.960  0.3695E+01  0.3462E+02
   4.970  0.3645E+01  0.3466E+02
   4.980  0.3665E+01  0.3469E+02
   4.990  0.3671E+01  0.3473E+02
   5.000  0.3691E+01  0.3477E+02
   5.010  0.3694E+01  0.3480E+02
   5.020  0.3754E+01  0.3484E+02
   5.030  0.3824E+01  0.3488E+02
   5.040  0.3875E+01  0.3492E+02
   5.050  0.3963E+01  0.3495E+02
   5.060  0.4142E+01  0.3500E+02
   5.070  0.4398E+01  0.3504E+02
   5.080  0.4655E+01  0.3508E+02
   5.090  0.5592E+01  0.3513E+02
   5.100  0.7109E+01  0.3520E+02
   5.110  0.5467E+01  0.3527E+02
   5.120  0.4765E+01  0.3532E+02
   5.130  0.4463E+01  0.3536E+02
   5.140  0.4078E+01  0.3541E+02
   5.150  0.3930E+01  0.3545E+02
   5.160  0.2769E+01  0.3548E+02
   5.170  0.2627E+01  0.3551E+02
   5.180  0.2503E+01  0.3553E+02
   5.190  0.2390E+01  0.3556E+02
   5.200  0.2277E+01  0.3558E+02
   5.210  0.2190E+01  0.3560E+02
   5.220  0.2088E+01  0.3563E+02
   5.230  0.2015E+01  0.3565E+02
   5.240  0.1934E+01  0.3567E+02
   5.250  0.1880E+01  0.3568E+02
   5.260  0.1783E+01  0.3570E+02
   5.270  0.1731E+01  0.3572E+02
   5.280  0.1676E+01  0.3574E+02
   5.290  0.1625E+01  0.3575E+02
   5.300  0.1558E+01  0.3577E+02
   5.310  0.1500E+01  0.3579E+02
   5.320  0.1480E+01  0.3580E+02
   5.330  0.1416E+01  0.3581E+02
   5.340  0.1367E+01  0.3583E+02
   5.350  0.1306E+01  0.3584E+02
   5.360  0.1299E+01  0.3585E+02
   5.370  0.1239E+01  0.3587E+02
   5.380  0.1202E+01  0.3588E+02
   5.390  0.1159E+01  0.3589E+02
   5.400  0.1139E+01  0.3590E+02
   5.410  0.1089E+01  0.3591E+02
   5.420  0.1076E+01  0.3593E+02
   5.430  0.1008E+01  0.3594E+02
   5.440  0.1048E+01  0.3595E+02
   5.450  0.9920E+00  0.3596E+02
   5.460  0.9044E+00  0.3597E+02
   5.470  0.9590E+00  0.3597E+02
   5.480  0.8725E+00  0.3598E+02
   5.490  0.9498E+00  0.3599E+02
   5.500  0.1336E+00  0.3600E+02
   5.510  0.0000E+00  0.3600E+02
   5.520  0.0000E+00  0.3600E+02
   5.530  0.0000E+00  0.3600E+02
   5.540  0.0000E+00  0.3600E+02
   5.550  0.0000E+00  0.3600E+02
   5.560  0.0000E+00  0.3600E+02
   5.570  0.0000E+00  0.3600E+02
   5.580  0.0000E+00  0.3600E+02
   5.590  0.0000E+00  0.3600E+02
   5.600  0.0000E+00  0.3600E+02
   5.610  0.0000E+00  0.3600E+02
   5.620  0.0000E+00  0.3600E+02
   5.630  0.0000E+00  0.3600E+02
   5.640  0.0000E+00  0.3600E+02
   5.650  0.0000E+00  0.3600E+02
   5.660  0.0000E+00  0.3600E+02
   5.670  0.0000E+00  0.3600E+02
   5.680  0.0000E+00  0.3600E+02
   5.690  0.0000E+00  0.3600E+02
   5.700  0.0000E+00  0.3600E+02
   5.710  0.0000E+00  0.3600E+02
   5.720  0.0000E+00  0.3600E+02
   5.730  0.0000E+00  0.3600E+02
   5.740  0.0000E+00  0.3600E+02
   5.750  0.0000E+00  0.3600E+02
   5.760  0.0000E+00  0.3600E+02
   5.770  0.0000E+00  0.3600E+02
   5.780  0.0000E+00  0.3600E+02
   5.790  0.4188E-03  0.3600E+02
   5.800  0.1838E-02  0.3600E+02
   5.810  0.4912E-02  0.3600E+02
   5.820  0.6865E-02  0.3600E+02
   5.830  0.9017E-02  0.3600E+02
   5.840  0.1137E-01  0.3600E+02
   5.850  0.1421E-01  0.3600E+02
   5.860  0.1666E-01  0.3600E+02
   5.870  0.1878E-01  0.3600E+02
   5.880  0.2101E-01  0.3600E+02
   5.890  0.2336E-01  0.3600E+02
   5.900  0.2583E-01  0.3600E+02
   5.910  0.2842E-01  0.3600E+02
   5.920  0.3113E-01  0.3600E+02
   5.930  0.3375E-01  0.3600E+02
   5.940  0.3630E-01  0.3600E+02
   5.950  0.3880E-01  0.3600E+02
   5.960  0.4125E-01  0.3600E+02
   5.970  0.4372E-01  0.3600E+02
   5.980  0.4628E-01  0.3600E+02
   5.990  0.4894E-01  0.3600E+02
   6.000  0.5169E-01  0.3601E+02
   6.010  0.5453E-01  0.3601E+02
   6.020  0.5744E-01  0.3601E+02
   6.030  0.6024E-01  0.3601E+02
   6.040  0.6295E-01  0.3601E+02
   6.050  0.6573E-01  0.3601E+02
   6.060  0.6852E-01  0.3601E+02
   6.070  0.7132E-01  0.3601E+02
   6.080  0.7414E-01  0.3601E+02
   6.090  0.7697E-01  0.3601E+02
   6.100  0.7985E-01  0.3601E+02
   6.110  0.8280E-01  0.3601E+02
   6.120  0.8584E-01  0.3601E+02
   6.130  0.8895E-01  0.3601E+02
   6.140  0.9215E-01  0.3602E+02
   6.150  0.9532E-01  0.3602E+02
   6.160  0.9842E-01  0.3602E+02
   6.170  0.1015E+00  0.3602E+02
   6.180  0.1265E+00  0.3602E+02
   6.190  0.1443E+00  0.3602E+02
   6.200  0.1508E+00  0.3602E+02
   6.210  0.1571E+00  0.3602E+02
   6.220  0.1630E+00  0.3603E+02
   6.230  0.1669E+00  0.3603E+02
   6.240  0.1540E+00  0.3603E+02
   6.250  0.1579E+00  0.3603E+02
   6.260  0.1616E+00  0.3603E+02
   6.270  0.1652E+00  0.3603E+02
   6.280  0.1687E+00  0.3604E+02
   6.290  0.1662E+00  0.3604E+02
   6.300  0.1649E+00  0.3604E+02
   6.310  0.1636E+00  0.3604E+02
   6.320  0.1627E+00  0.3604E+02
   6.330  0.1654E+00  0.3604E+02
   6.340  0.1679E+00  0.3605E+02
   6.350  0.1703E+00  0.3605E+02
   6.360  0.1727E+00  0.3605E+02
   6.370  0.1725E+00  0.3605E+02
   6.380  0.1676E+00  0.3605E+02
   6.390  0.1698E+00  0.3605E+02
   6.400  0.1702E+00  0.3606E+02
   6.410  0.1707E+00  0.3606E+02
   6.420  0.1712E+00  0.3606E+02
   6.430  0.1720E+00  0.3606E+02
   6.440  0.1741E+00  0.3606E+02
   6.450  0.1762E+00  0.3606E+02
   6.460  0.1782E+00  0.3607E+02
   6.470  0.1801E+00  0.3607E+02
   6.480  0.1770E+00  0.3607E+02
   6.490  0.1762E+00  0.3607E+02
   6.500  0.1755E+00  0.3607E+02
   6.510  0.1776E+00  0.3607E+02
   6.520  0.1784E+00  0.3608E+02
   6.530  0.1792E+00  0.3608E+02
   6.540  0.1800E+00  0.3608E+02
   6.550  0.1808E+00  0.3608E+02
   6.560  0.1816E+00  0.3608E+02
   6.570  0.1832E+00  0.3609E+02
   6.580  0.1850E+00  0.3609E+02
   6.590  0.1867E+00  0.3609E+02
   6.600  0.1858E+00  0.3609E+02
   6.610  0.1849E+00  0.3609E+02
   6.620  0.1851E+00  0.3609E+02
   6.630  0.1853E+00  0.3610E+02
   6.640  0.1855E+00  0.3610E+02
   6.650  0.1872E+00  0.3610E+02
   6.660  0.1882E+00  0.3610E+02
   6.670  0.1891E+00  0.3610E+02
   6.680  0.1901E+00  0.3611E+02
   6.690  0.1910E+00  0.3611E+02
   6.700  0.1920E+00  0.3611E+02
   6.710  0.1929E+00  0.3611E+02
   6.720  0.1939E+00  0.3611E+02
   6.730  0.1955E+00  0.3612E+02
   6.740  0.1944E+00  0.3612E+02
   6.750  0.1947E+00  0.3612E+02
   6.760  0.1950E+00  0.3612E+02
   6.770  0.1955E+00  0.3612E+02
   6.780  0.1960E+00  0.3613E+02
   6.790  0.1966E+00  0.3613E+02
   6.800  0.1971E+00  0.3613E+02
   6.810  0.1977E+00  0.3613E+02
   6.820  0.1997E+00  0.3613E+02
   6.830  0.2007E+00  0.3614E+02
   6.840  0.2057E+00  0.3614E+02
   6.850  0.2427E+00  0.3614E+02
   6.860  0.2561E+00  0.3614E+02
   6.870  0.2667E+00  0.3614E+02
   6.880  0.2778E+00  0.3615E+02
   6.890  0.2909E+00  0.3615E+02
   6.900  0.2764E+00  0.3615E+02
   6.910  0.3171E+00  0.3616E+02
   6.920  0.5162E+00  0.3616E+02
   6.930  0.7517E+00  0.3617E+02
   6.940  0.9849E+00  0.3618E+02
   6.950  0.8972E+00  0.3618E+02
   6.960  0.9269E+00  0.3619E+02
   6.970  0.9217E+00  0.3620E+02
   6.980  0.9032E+00  0.3621E+02
   6.990  0.9299E+00  0.3622E+02
   7.000  0.9282E+00  0.3623E+02
   7.010  0.9567E+00  0.3624E+02
   7.020  0.9709E+00  0.3625E+02
   7.030  0.9718E+00  0.3626E+02
   7.040  0.9765E+00  0.3627E+02
   7.050  0.9698E+00  0.3628E+02
   7.060  0.9632E+00  0.3629E+02
   7.070  0.9830E+00  0.3630E+02
   7.080  0.1008E+01  0.3631E+02
   7.090  0.1028E+01  0.3632E+02
   7.100  0.1042E+01  0.3633E+02
   7.110  0.1033E+01  0.3634E+02
   7.120  0.1030E+01  0.3635E+02
   7.130  0.1028E+01  0.3636E+02
   7.140  0.1031E+01  0.3637E+02
   7.150  0.1052E+01  0.3638E+02
   7.160  0.1078E+01  0.3639E+02
   7.170  0.1099E+01  0.3640E+02
   7.180  0.1092E+01  0.3641E+02
   7.190  0.1092E+01  0.3642E+02
   7.200  0.1106E+01  0.3643E+02
   7.210  0.1113E+01  0.3645E+02
   7.220  0.1113E+01  0.3646E+02
   7.230  0.1115E+01  0.3647E+02
   7.240  0.1125E+01  0.3648E+02
   7.250  0.1131E+01  0.3649E+02
   7.260  0.1135E+01  0.3650E+02
   7.270  0.1139E+01  0.3651E+02
   7.280  0.1147E+01  0.3652E+02
   7.290  0.1168E+01  0.3654E+02
   7.300  0.1189E+01  0.3655E+02
   7.310  0.1244E+01  0.3656E+02
   7.320  0.1384E+01  0.3657E+02
   7.330  0.1486E+01  0.3659E+02
   7.340  0.1591E+01  0.3660E+02
   7.350  0.1708E+01  0.3662E+02
   7.360  0.1795E+01  0.3664E+02
   7.370  0.1834E+01  0.3666E+02
   7.380  0.1837E+01  0.3667E+02
   7.390  0.1869E+01  0.3669E+02
   7.400  0.1894E+01  0.3671E+02
   7.410  0.1920E+01  0.3673E+02
   7.420  0.1939E+01  0.3675E+02
   7.430  0.1979E+01  0.3677E+02
   7.440  0.1992E+01  0.3679E+02
   7.450  0.2001E+01  0.3681E+02
   7.460  0.2032E+01  0.3683E+02
   7.470  0.2064E+01  0.3685E+02
   7.480  0.2113E+01  0.3687E+02
   7.490  0.2140E+01  0.3689E+02
   7.500  0.2195E+01  0.3691E+02
   7.510  0.2238E+01  0.3694E+02
   7.520  0.2306E+01  0.3696E+02
   7.530  0.2413E+01  0.3698E+02
   7.540  0.2621E+01  0.3701E+02
   7.550  0.4388E+01  0.3704E+02
   7.560  0.3756E+01  0.3709E+02
   7.570  0.3320E+01  0.3712E+02
   7.580  0.2916E+01  0.3715E+02
   7.590  0.2797E+01  0.3718E+02
   7.600  0.2635E+01  0.3721E+02
   7.610  0.2574E+01  0.3723E+02
   7.620  0.2497E+01  0.3726E+02
   7.630  0.2428E+01  0.3728E+02
   7.640  0.2400E+01  0.3731E+02
   7.650  0.2381E+01  0.3733E+02
   7.660  0.2336E+01  0.3736E+02
   7.670  0.2343E+01  0.3738E+02
   7.680  0.2323E+01  0.3740E+02
   7.690  0.2307E+01  0.3743E+02
   7.700  0.2305E+01  0.3745E+02
   7.710  0.2293E+01  0.3747E+02
   7.720  0.2299E+01  0.3749E+02
   7.730  0.2287E+01  0.3752E+02
   7.740  0.2293E+01  0.3754E+02
   7.750  0.2278E+01  0.3756E+02
   7.760  0.2262E+01  0.3759E+02
   7.770  0.2286E+01  0.3761E+02
   7.780  0.2319E+01  0.3763E+02
   7.790  0.2309E+01  0.3765E+02
   7.800  0.2339E+01  0.3768E+02
   7.810  0.2368E+01  0.3770E+02
   7.820  0.2407E+01  0.3773E+02
   7.830  0.2454E+01  0.3775E+02
   7.840  0.2512E+01  0.3777E+02
   7.850  0.2616E+01  0.3780E+02
   7.860  0.3128E+01  0.3783E+02
   7.870  0.4246E+01  0.3787E+02
   7.880  0.3766E+01  0.3791E+02
   7.890  0.3366E+01  0.3795E+02
   7.900  0.2979E+01  0.3798E+02
   7.910  0.2863E+01  0.3801E+02
   7.920  0.2722E+01  0.3804E+02
   7.930  0.2650E+01  0.3806E+02
   7.940  0.2555E+01  0.3809E+02
   7.950  0.2467E+01  0.3811E+02
   7.960  0.2425E+01  0.3814E+02
   7.970  0.2391E+01  0.3816E+02
   7.980  0.2357E+01  0.3819E+02
   7.990  0.2296E+01  0.3821E+02
   8.000  0.2273E+01  0.3823E+02
   8.010  0.2250E+01  0.3826E+02
   8.020  0.2207E+01  0.3828E+02
   8.030  0.2180E+01  0.3830E+02
   8.040  0.2168E+01  0.3832E+02
   8.050  0.2155E+01  0.3834E+02
   8.060  0.2142E+01  0.3836E+02
   8.070  0.2119E+01  0.3839E+02
   8.080  0.2092E+01  0.3841E+02
   8.090  0.2071E+01  0.3843E+02
   8.100  0.2058E+01  0.3845E+02
   8.110  0.2046E+01  0.3847E+02
   8.120  0.2037E+01  0.3849E+02
   8.130  0.2029E+01  0.3851E+02
   8.140  0.2006E+01  0.3853E+02
   8.150  0.2006E+01  0.3855E+02
   8.160  0.1999E+01  0.3857E+02
   8.170  0.1995E+01  0.3859E+02
   8.180  0.1981E+01  0.3861E+02
   8.190  0.1964E+01  0.3863E+02
   8.200  0.1952E+01  0.3865E+02
   8.210  0.1946E+01  0.3867E+02
   8.220  0.1946E+01  0.3869E+02
   8.230  0.1946E+01  0.3871E+02
   8.240  0.1946E+01  0.3873E+02
   8.250  0.1950E+01  0.3875E+02
   8.260  0.1946E+01  0.3877E+02
   8.270  0.1939E+01  0.3879E+02
   8.280  0.1933E+01  0.3880E+02
   8.290  0.1942E+01  0.3882E+02
   8.300  0.1956E+01  0.3884E+02
   8.310  0.1974E+01  0.3886E+02
   8.320  0.1989E+01  0.3888E+02
   8.330  0.2005E+01  0.3890E+02
   8.340  0.2040E+01  0.3892E+02
   8.350  0.2040E+01  0.3894E+02
   8.360  0.2050E+01  0.3896E+02
   8.370  0.2047E+01  0.3898E+02
   8.380  0.2034E+01  0.3900E+02
   8.390  0.2019E+01  0.3903E+02
   8.400  0.2014E+01  0.3905E+02
   8.410  0.2004E+01  0.3907E+02
   8.420  0.1959E+01  0.3909E+02
   8.430  0.1839E+01  0.3910E+02
   8.440  0.1845E+01  0.3912E+02
   8.450  0.1882E+01  0.3914E+02
   8.460  0.2007E+01  0.3916E+02
   8.470  0.2137E+01  0.3918E+02
   8.480  0.2352E+01  0.3920E+02
   8.490  0.2182E+01  0.3923E+02
   8.500  0.2212E+01  0.3925E+02
   8.510  0.2288E+01  0.3927E+02
   8.520  0.2364E+01  0.3929E+02
   8.530  0.2178E+01  0.3932E+02
   8.540  0.2175E+01  0.3934E+02
   8.550  0.2158E+01  0.3936E+02
   8.560  0.2107E+01  0.3938E+02
   8.570  0.2058E+01  0.3940E+02
   8.580  0.2020E+01  0.3942E+02
   8.590  0.2025E+01  0.3944E+02
   8.600  0.1981E+01  0.3946E+02
   8.610  0.1971E+01  0.3948E+02
   8.620  0.1951E+01  0.3950E+02
   8.630  0.1874E+01  0.3952E+02
   8.640  0.1857E+01  0.3954E+02
   8.650  0.1841E+01  0.3956E+02
   8.660  0.1824E+01  0.3958E+02
   8.670  0.1799E+01  0.3959E+02
   8.680  0.1769E+01  0.3961E+02
   8.690  0.1770E+01  0.3963E+02
   8.700  0.1723E+01  0.3965E+02
   8.710  0.1675E+01  0.3966E+02
   8.720  0.1649E+01  0.3968E+02
   8.730  0.1636E+01  0.3970E+02
   8.740  0.1619E+01  0.3971E+02
   8.750  0.1629E+01  0.3973E+02
   8.760  0.1662E+01  0.3975E+02
   8.770  0.1671E+01  0.3976E+02
   8.780  0.1651E+01  0.3978E+02
   8.790  0.1595E+01  0.3980E+02
   8.800  0.1592E+01  0.3981E+02
   8.810  0.1588E+01  0.3983E+02
   8.820  0.1563E+01  0.3984E+02
   8.830  0.1538E+01  0.3986E+02
   8.840  0.1543E+01  0.3987E+02
   8.850  0.1553E+01  0.3989E+02
   8.860  0.1529E+01  0.3991E+02
   8.870  0.1504E+01  0.3992E+02
   8.880  0.1494E+01  0.3994E+02
   8.890  0.1508E+01  0.3995E+02
   8.900  0.1566E+01  0.3997E+02
   8.910  0.1586E+01  0.3998E+02
   8.920  0.1545E+01  0.4000E+02
   8.930  0.1524E+01  0.4001E+02
   8.940  0.1497E+01  0.4003E+02
   8.950  0.1389E+01  0.4004E+02
   8.960  0.1502E+01  0.4006E+02
   8.970  0.1462E+01  0.4007E+02
   8.980  0.1468E+01  0.4009E+02
   8.990  0.1485E+01  0.4010E+02
   9.000  0.1506E+01  0.4012E+02
   9.010  0.1531E+01  0.4013E+02
   9.020  0.1561E+01  0.4015E+02
   9.030  0.1617E+01  0.4016E+02
   9.040  0.1805E+01  0.4018E+02
   9.050  0.1917E+01  0.4020E+02
   9.060  0.1958E+01  0.4022E+02
   9.070  0.1907E+01  0.4024E+02
   9.080  0.1832E+01  0.4026E+02
   9.090  0.1784E+01  0.4027E+02
   9.100  0.1761E+01  0.4029E+02
   9.110  0.1795E+01  0.4031E+02
   9.120  0.1746E+01  0.4033E+02
   9.130  0.1748E+01  0.4035E+02
   9.140  0.1789E+01  0.4036E+02
   9.150  0.1838E+01  0.4038E+02
   9.160  0.1888E+01  0.4040E+02
   9.170  0.1946E+01  0.4042E+02
   9.180  0.1994E+01  0.4044E+02
   9.190  0.2037E+01  0.4046E+02
   9.200  0.2089E+01  0.4048E+02
   9.210  0.2281E+01  0.4050E+02
   9.220  0.2330E+01  0.4052E+02
   9.230  0.2348E+01  0.4055E+02
   9.240  0.2417E+01  0.4057E+02
   9.250  0.2455E+01  0.4060E+02
   9.260  0.2570E+01  0.4062E+02
   9.270  0.2683E+01  0.4065E+02
   9.280  0.2827E+01  0.4067E+02
   9.290  0.2981E+01  0.4070E+02
   9.300  0.3200E+01  0.4073E+02
   9.310  0.3715E+01  0.4077E+02
   9.320  0.4111E+01  0.4081E+02
   9.330  0.4375E+01  0.4085E+02
   9.340  0.4323E+01  0.4089E+02
   9.350  0.4033E+01  0.4094E+02
   9.360  0.3788E+01  0.4097E+02
   9.370  0.3711E+01  0.4101E+02
   9.380  0.3812E+01  0.4105E+02
   9.390  0.3567E+01  0.4109E+02
   9.400  0.3377E+01  0.4112E+02
   9.410  0.3348E+01  0.4115E+02
   9.420  0.3216E+01  0.4119E+02
   9.430  0.3079E+01  0.4122E+02
   9.440  0.3031E+01  0.4125E+02
   9.450  0.2971E+01  0.4128E+02
   9.460  0.2863E+01  0.4131E+02
   9.470  0.2808E+01  0.4134E+02
   9.480  0.2756E+01  0.4136E+02
   9.490  0.2713E+01  0.4139E+02
   9.500  0.2704E+01  0.4142E+02
   9.510  0.2709E+01  0.4145E+02
   9.520  0.2686E+01  0.4147E+02
   9.530  0.2657E+01  0.4150E+02
   9.540  0.2655E+01  0.4153E+02
   9.550  0.2752E+01  0.4155E+02
   9.560  0.2902E+01  0.4158E+02
   9.570  0.2918E+01  0.4161E+02
   9.580  0.2922E+01  0.4164E+02
   9.590  0.2956E+01  0.4167E+02
   9.600  0.2940E+01  0.4170E+02
   9.610  0.2973E+01  0.4173E+02
   9.620  0.3000E+01  0.4176E+02
   9.630  0.3091E+01  0.4179E+02
   9.640  0.3110E+01  0.4182E+02
   9.650  0.3222E+01  0.4185E+02
   9.660  0.3299E+01  0.4188E+02
   9.670  0.3551E+01  0.4192E+02
   9.680  0.4008E+01  0.4196E+02
   9.690  0.4072E+01  0.4200E+02
   9.700  0.3560E+01  0.4204E+02
   9.710  0.3258E+01  0.4207E+02
   9.720  0.3153E+01  0.4210E+02
   9.730  0.3059E+01  0.4213E+02
   9.740  0.2940E+01  0.4216E+02
   9.750  0.2864E+01  0.4219E+02
   9.760  0.2830E+01  0.4222E+02
   9.770  0.2799E+01  0.4225E+02
   9.780  0.2765E+01  0.4228E+02
   9.790  0.2734E+01  0.4230E+02
   9.800  0.2699E+01  0.4233E+02
   9.810  0.2668E+01  0.4236E+02
   9.820  0.2656E+01  0.4238E+02
   9.830  0.2654E+01  0.4241E+02
   9.840  0.2656E+01  0.4244E+02
   9.850  0.2657E+01  0.4246E+02
   9.860  0.2658E+01  0.4249E+02
   9.870  0.2672E+01  0.4252E+02
   9.880  0.2712E+01  0.4254E+02
   9.890  0.2770E+01  0.4257E+02
   9.900  0.2725E+01  0.4260E+02
   9.910  0.2717E+01  0.4263E+02
   9.920  0.2634E+01  0.4265E+02
   9.930  0.2668E+01  0.4268E+02
   9.940  0.2615E+01  0.4271E+02
   9.950  0.2611E+01  0.4273E+02
   9.960  0.2577E+01  0.4276E+02
   9.970  0.2539E+01  0.4278E+02
   9.980  0.2478E+01  0.4281E+02
   9.990  0.2448E+01  0.4283E+02
  10.000  0.2417E+01  0.4286E+02
  10.010  0.2393E+01  0.4288E+02
  10.020  0.2388E+01  0.4291E+02
  10.030  0.2366E+01  0.4293E+02
  10.040  0.2367E+01  0.4295E+02
  10.050  0.2380E+01  0.4298E+02
  10.060  0.2351E+01  0.4300E+02
  10.070  0.2335E+01  0.4302E+02
  10.080  0.2275E+01  0.4305E+02
  10.090  0.2217E+01  0.4307E+02
  10.100  0.2195E+01  0.4309E+02
  10.110  0.2118E+01  0.4311E+02
  10.120  0.2030E+01  0.4313E+02
  10.130  0.1983E+01  0.4315E+02
  10.140  0.1955E+01  0.4317E+02
  10.150  0.1950E+01  0.4319E+02
  10.160  0.1944E+01  0.4321E+02
  10.170  0.1936E+01  0.4323E+02
  10.180  0.1997E+01  0.4325E+02
  10.190  0.1935E+01  0.4327E+02
  10.200  0.1944E+01  0.4329E+02
  10.210  0.2036E+01  0.4331E+02
  10.220  0.2108E+01  0.4333E+02
  10.230  0.3142E+01  0.4336E+02
  10.240  0.3110E+01  0.4339E+02
  10.250  0.2897E+01  0.4342E+02
  10.260  0.2438E+01  0.4345E+02
  10.270  0.2271E+01  0.4347E+02
  10.280  0.2098E+01  0.4349E+02
  10.290  0.2146E+01  0.4351E+02
  10.300  0.2104E+01  0.4353E+02
  10.310  0.2064E+01  0.4356E+02
  10.320  0.2024E+01  0.4358E+02
  10.330  0.2024E+01  0.4360E+02
  10.340  0.2034E+01  0.4362E+02
  10.350  0.2024E+01  0.4364E+02
  10.360  0.1930E+01  0.4366E+02
  10.370  0.1875E+01  0.4368E+02
  10.380  0.1842E+01  0.4369E+02
  10.390  0.1857E+01  0.4371E+02
  10.400  0.1871E+01  0.4373E+02
  10.410  0.1870E+01  0.4375E+02
  10.420  0.1875E+01  0.4377E+02
  10.430  0.1879E+01  0.4379E+02
  10.440  0.1867E+01  0.4381E+02
  10.450  0.1840E+01  0.4382E+02
  10.460  0.1826E+01  0.4384E+02
  10.470  0.1818E+01  0.4386E+02
  10.480  0.1835E+01  0.4388E+02
  10.490  0.1866E+01  0.4390E+02
  10.500  0.1877E+01  0.4392E+02
  10.510  0.1858E+01  0.4394E+02
  10.520  0.1847E+01  0.4395E+02
  10.530  0.1829E+01  0.4397E+02
  10.540  0.1799E+01  0.4399E+02
  10.550  0.1761E+01  0.4401E+02
  10.560  0.1732E+01  0.4403E+02
  10.570  0.1736E+01  0.4404E+02
  10.580  0.1784E+01  0.4406E+02
  10.590  0.1829E+01  0.4408E+02
  10.600  0.1864E+01  0.4410E+02
  10.610  0.1905E+01  0.4412E+02
  10.620  0.1991E+01  0.4414E+02
  10.630  0.2036E+01  0.4416E+02
  10.640  0.2076E+01  0.4418E+02
  10.650  0.2088E+01  0.4420E+02
  10.660  0.2100E+01  0.4422E+02
  10.670  0.2656E+01  0.4424E+02
  10.680  0.2771E+01  0.4427E+02
  10.690  0.3033E+01  0.4430E+02
  10.700  0.3134E+01  0.4433E+02
  10.710  0.2954E+01  0.4436E+02
  10.720  0.2946E+01  0.4439E+02
  10.730  0.2924E+01  0.4442E+02
  10.740  0.2902E+01  0.4445E+02
  10.750  0.2874E+01  0.4448E+02
  10.760  0.2879E+01  0.4451E+02
  10.770  0.2816E+01  0.4453E+02
  10.780  0.2860E+01  0.4456E+02
  10.790  0.2723E+01  0.4459E+02
  10.800  0.2603E+01  0.4462E+02
  10.810  0.2493E+01  0.4464E+02
  10.820  0.2396E+01  0.4467E+02
  10.830  0.2356E+01  0.4469E+02
  10.840  0.2382E+01  0.4472E+02
  10.850  0.2436E+01  0.4474E+02
  10.860  0.2507E+01  0.4477E+02
  10.870  0.2610E+01  0.4479E+02
  10.880  0.2759E+01  0.4482E+02
  10.890  0.2926E+01  0.4485E+02
  10.900  0.3128E+01  0.4488E+02
  10.910  0.3387E+01  0.4491E+02
  10.920  0.3441E+01  0.4494E+02
  10.930  0.3497E+01  0.4498E+02
  10.940  0.3553E+01  0.4501E+02
  10.950  0.3347E+01  0.4505E+02
  10.960  0.3366E+01  0.4508E+02
  10.970  0.3408E+01  0.4512E+02
  10.980  0.3443E+01  0.4515E+02
  10.990  0.3361E+01  0.4518E+02
  11.000  0.3301E+01  0.4522E+02
  11.010  0.3297E+01  0.4525E+02
  11.020  0.3286E+01  0.4528E+02
  11.030  0.3275E+01  0.4532E+02
  11.040  0.3357E+01  0.4535E+02
  11.050  0.3556E+01  0.4538E+02
  11.060  0.3816E+01  0.4542E+02
  11.070  0.3837E+01  0.4546E+02
  11.080  0.3947E+01  0.4550E+02
  11.090  0.4024E+01  0.4554E+02
  11.100  0.4172E+01  0.4558E+02
  11.110  0.4285E+01  0.4562E+02
  11.120  0.4396E+01  0.4566E+02
  11.130  0.4348E+01  0.4571E+02
  11.140  0.4464E+01  0.4575E+02
  11.150  0.4700E+01  0.4580E+02
  11.160  0.5017E+01  0.4585E+02
  11.170  0.5223E+01  0.4590E+02
  11.180  0.5490E+01  0.4595E+02
  11.190  0.5716E+01  0.4601E+02
  11.200  0.6288E+01  0.4607E+02
  11.210  0.6818E+01  0.4613E+02
  11.220  0.6153E+01  0.4620E+02
  11.230  0.6028E+01  0.4626E+02
  11.240  0.5907E+01  0.4632E+02
  11.250  0.5897E+01  0.4638E+02
  11.260  0.3814E+01  0.4644E+02
  11.270  0.3497E+01  0.4648E+02
  11.280  0.3200E+01  0.4651E+02
  11.290  0.3041E+01  0.4654E+02
  11.300  0.2892E+01  0.4657E+02
  11.310  0.2764E+01  0.4660E+02
  11.320  0.2666E+01  0.4663E+02
  11.330  0.2560E+01  0.4665E+02
  11.340  0.2666E+01  0.4668E+02
  11.350  0.2799E+01  0.4671E+02
  11.360  0.2855E+01  0.4674E+02
  11.370  0.2959E+01  0.4676E+02
  11.380  0.3123E+01  0.4679E+02
  11.390  0.3269E+01  0.4683E+02
  11.400  0.3418E+01  0.4686E+02
  11.410  0.3539E+01  0.4689E+02
  11.420  0.3587E+01  0.4693E+02
  11.430  0.3607E+01  0.4697E+02
  11.440  0.3654E+01  0.4700E+02
  11.450  0.3667E+01  0.4704E+02
  11.460  0.3695E+01  0.4708E+02
  11.470  0.3726E+01  0.4711E+02
  11.480  0.3732E+01  0.4715E+02
  11.490  0.3729E+01  0.4719E+02
  11.500  0.3736E+01  0.4723E+02
  11.510  0.3762E+01  0.4726E+02
  11.520  0.3813E+01  0.4730E+02
  11.530  0.3871E+01  0.4734E+02
  11.540  0.3972E+01  0.4738E+02
  11.550  0.4120E+01  0.4742E+02
  11.560  0.4342E+01  0.4746E+02
  11.570  0.4583E+01  0.4751E+02
  11.580  0.4568E+01  0.4755E+02
  11.590  0.4605E+01  0.4760E+02
  11.600  0.4928E+01  0.4764E+02
  11.610  0.4818E+01  0.4770E+02
  11.620  0.4523E+01  0.4774E+02
  11.630  0.4475E+01  0.4779E+02
  11.640  0.4683E+01  0.4783E+02
  11.650  0.4596E+01  0.4788E+02
  11.660  0.4635E+01  0.4792E+02
  11.670  0.4739E+01  0.4797E+02
  11.680  0.4756E+01  0.4802E+02
  11.690  0.4827E+01  0.4807E+02
  11.700  0.4982E+01  0.4812E+02
  11.710  0.5420E+01  0.4817E+02
  11.720  0.5717E+01  0.4822E+02
  11.730  0.5462E+01  0.4828E+02
  11.740  0.5321E+01  0.4833E+02
  11.750  0.5084E+01  0.4839E+02
  11.760  0.5088E+01  0.4844E+02
  11.770  0.5066E+01  0.4849E+02
  11.780  0.5063E+01  0.4854E+02
  11.790  0.5102E+01  0.4859E+02
  11.800  0.5148E+01  0.4864E+02
  11.810  0.5169E+01  0.4869E+02
  11.820  0.5271E+01  0.4874E+02
  11.830  0.5365E+01  0.4880E+02
  11.840  0.5505E+01  0.4885E+02
  11.850  0.5860E+01  0.4891E+02
  11.860  0.5565E+01  0.4897E+02
  11.870  0.5136E+01  0.4902E+02
  11.880  0.5168E+01  0.4907E+02
  11.890  0.5125E+01  0.4912E+02
  11.900  0.5319E+01  0.4917E+02
  11.910  0.5657E+01  0.4923E+02
  11.920  0.6000E+01  0.4929E+02
  11.930  0.6481E+01  0.4935E+02
  11.940  0.7081E+01  0.4942E+02
  11.950  0.8803E+01  0.4950E+02
  11.960  0.9326E+01  0.4958E+02
  11.970  0.9790E+01  0.4968E+02
  11.980  0.8500E+01  0.4977E+02
  11.990  0.7771E+01  0.4985E+02
  12.000  0.7666E+01  0.4993E+02
  12.010  0.4544E+01  0.5000E+02
  12.020  0.4672E+01  0.5005E+02
  12.030  0.4816E+01  0.5009E+02
  12.040  0.5117E+01  0.5014E+02
  12.050  0.5291E+01  0.5019E+02
  12.060  0.5287E+01  0.5025E+02
  12.070  0.5536E+01  0.5030E+02
  12.080  0.5836E+01  0.5036E+02
  12.090  0.6156E+01  0.5042E+02
  12.100  0.6785E+01  0.5048E+02
  12.110  0.8279E+01  0.5056E+02
  12.120  0.8672E+01  0.5064E+02
  12.130  0.7483E+01  0.5072E+02
  12.140  0.6963E+01  0.5080E+02
  12.150  0.6787E+01  0.5086E+02
  12.160  0.6741E+01  0.5093E+02
  12.170  0.6654E+01  0.5100E+02
  12.180  0.6844E+01  0.5107E+02
  12.190  0.6019E+01  0.5113E+02
  12.200  0.6463E+01  0.5119E+02
  12.210  0.4309E+01  0.5126E+02
  12.220  0.3957E+01  0.5130E+02
  12.230  0.3152E+01  0.5133E+02
  12.240  0.3370E+01  0.5137E+02
  12.250  0.3592E+01  0.5140E+02
  12.260  0.3618E+01  0.5144E+02
  12.270  0.3813E+01  0.5147E+02
  12.280  0.4059E+01  0.5151E+02
  12.290  0.4792E+01  0.5156E+02
  12.300  0.5035E+01  0.5161E+02
  12.310  0.4899E+01  0.5166E+02
  12.320  0.5007E+01  0.5171E+02
  12.330  0.5129E+01  0.5176E+02
  12.340  0.5262E+01  0.5182E+02
  12.350  0.5354E+01  0.5187E+02
  12.360  0.5371E+01  0.5192E+02
  12.370  0.5390E+01  0.5198E+02
  12.380  0.5402E+01  0.5203E+02
  12.390  0.5376E+01  0.5208E+02
  12.400  0.5341E+01  0.5214E+02
  12.410  0.5281E+01  0.5219E+02
  12.420  0.5198E+01  0.5224E+02
  12.430  0.5067E+01  0.5229E+02
  12.440  0.4786E+01  0.5234E+02
  12.450  0.4214E+01  0.5239E+02
  12.460  0.3799E+01  0.5243E+02
  12.470  0.3666E+01  0.5247E+02
  12.480  0.3677E+01  0.5250E+02
  12.490  0.3621E+01  0.5254E+02
  12.500  0.4120E+01  0.5258E+02
  12.510  0.4512E+01  0.5262E+02
  12.520  0.4469E+01  0.5267E+02
  12.530  0.4238E+01  0.5271E+02
  12.540  0.3948E+01  0.5275E+02
  12.550  0.3757E+01  0.5279E+02
  12.560  0.3638E+01  0.5283E+02
  12.570  0.3548E+01  0.5286E+02
  12.580  0.3486E+01  0.5290E+02
  12.590  0.3446E+01  0.5293E+02
  12.600  0.3436E+01  0.5297E+02
  12.610  0.3443E+01  0.5300E+02
  12.620  0.3462E+01  0.5304E+02
  12.630  0.3540E+01  0.5307E+02
  12.640  0.3683E+01  0.5311E+02
  12.650  0.4069E+01  0.5315E+02
  12.660  0.4121E+01  0.5319E+02
  12.670  0.4213E+01  0.5323E+02
  12.680  0.4179E+01  0.5327E+02
  12.690  0.4201E+01  0.5331E+02
  12.700  0.4158E+01  0.5336E+02
  12.710  0.4206E+01  0.5340E+02
  12.720  0.4228E+01  0.5344E+02
  12.730  0.4212E+01  0.5348E+02
  12.740  0.4254E+01  0.5352E+02
  12.750  0.4325E+01  0.5357E+02
  12.760  0.4365E+01  0.5361E+02
  12.770  0.4394E+01  0.5365E+02
  12.780  0.4434E+01  0.5370E+02
  12.790  0.4466E+01  0.5374E+02
  12.800  0.4513E+01  0.5379E+02
  12.810  0.4589E+01  0.5383E+02
  12.820  0.4669E+01  0.5388E+02
  12.830  0.4730E+01  0.5393E+02
  12.840  0.4887E+01  0.5397E+02
  12.850  0.5138E+01  0.5402E+02
  12.860  0.5626E+01  0.5408E+02
  12.870  0.5493E+01  0.5414E+02
  12.880  0.5321E+01  0.5419E+02
  12.890  0.5243E+01  0.5424E+02
  12.900  0.5203E+01  0.5430E+02
  12.910  0.5195E+01  0.5435E+02
  12.920  0.5161E+01  0.5440E+02
  12.930  0.5134E+01  0.5445E+02
  12.940  0.5096E+01  0.5450E+02
  12.950  0.5012E+01  0.5455E+02
  12.960  0.4774E+01  0.5460E+02
  12.970  0.4471E+01  0.5465E+02
  12.980  0.4321E+01  0.5469E+02
  12.990  0.4216E+01  0.5474E+02
  13.000  0.4120E+01  0.5478E+02
  13.010  0.4069E+01  0.5482E+02
  13.020  0.4031E+01  0.5486E+02
  13.030  0.3964E+01  0.5490E+02
  13.040  0.3895E+01  0.5494E+02
  13.050  0.3856E+01  0.5498E+02
  13.060  0.3792E+01  0.5502E+02
  13.070  0.3754E+01  0.5505E+02
  13.080  0.3701E+01  0.5509E+02
  13.090  0.3617E+01  0.5513E+02
  13.100  0.3471E+01  0.5516E+02
  13.110  0.3442E+01  0.5520E+02
  13.120  0.3432E+01  0.5523E+02
  13.130  0.3450E+01  0.5527E+02
  13.140  0.3602E+01  0.5530E+02
  13.150  0.3693E+01  0.5534E+02
  13.160  0.3775E+01  0.5537E+02
  13.170  0.3824E+01  0.5541E+02
  13.180  0.3838E+01  0.5545E+02
  13.190  0.4006E+01  0.5549E+02
  13.200  0.4028E+01  0.5553E+02
  13.210  0.4030E+01  0.5557E+02
  13.220  0.3743E+01  0.5561E+02
  13.230  0.3581E+01  0.5565E+02
  13.240  0.3502E+01  0.5568E+02
  13.250  0.3449E+01  0.5572E+02
  13.260  0.3374E+01  0.5575E+02
  13.270  0.3393E+01  0.5578E+02
  13.280  0.3475E+01  0.5582E+02
  13.290  0.3537E+01  0.5585E+02
  13.300  0.3628E+01  0.5589E+02
  13.310  0.3786E+01  0.5593E+02
  13.320  0.3896E+01  0.5596E+02
  13.330  0.4021E+01  0.5600E+02
  13.340  0.4035E+01  0.5604E+02
  13.350  0.4066E+01  0.5609E+02
  13.360  0.4131E+01  0.5613E+02
  13.370  0.4208E+01  0.5617E+02
  13.380  0.4319E+01  0.5621E+02
  13.390  0.4418E+01  0.5625E+02
  13.400  0.4560E+01  0.5630E+02
  13.410  0.4449E+01  0.5634E+02
  13.420  0.4503E+01  0.5639E+02
  13.430  0.4517E+01  0.5643E+02
  13.440  0.4531E+01  0.5648E+02
  13.450  0.4589E+01  0.5652E+02
  13.460  0.4644E+01  0.5657E+02
  13.470  0.4516E+01  0.5662E+02
  13.480  0.4503E+01  0.5666E+02
  13.490  0.4439E+01  0.5671E+02
  13.500  0.4411E+01  0.5675E+02
  13.510  0.4452E+01  0.5679E+02
  13.520  0.4485E+01  0.5684E+02
  13.530  0.4459E+01  0.5688E+02
  13.540  0.4551E+01  0.5693E+02
  13.550  0.4483E+01  0.5697E+02
  13.560  0.4609E+01  0.5702E+02
  13.570  0.4659E+01  0.5707E+02
  13.580  0.4681E+01  0.5711E+02
  13.590  0.4898E+01  0.5716E+02
  13.600  0.4898E+01  0.5721E+02
  13.610  0.5056E+01  0.5726E+02
  13.620  0.5430E+01  0.5731E+02
  13.630  0.6259E+01  0.5737E+02
  13.640  0.6577E+01  0.5744E+02
  13.650  0.6799E+01  0.5750E+02
  13.660  0.5371E+01  0.5756E+02
  13.670  0.4829E+01  0.5761E+02
  13.680  0.3940E+01  0.5765E+02
  13.690  0.3853E+01  0.5769E+02
  13.700  0.3792E+01  0.5773E+02
  13.710  0.3806E+01  0.5777E+02
  13.720  0.3840E+01  0.5781E+02
  13.730  0.3801E+01  0.5785E+02
  13.740  0.4039E+01  0.5789E+02
  13.750  0.3746E+01  0.5792E+02
  13.760  0.3775E+01  0.5796E+02
  13.770  0.3843E+01  0.5800E+02
  13.780  0.3917E+01  0.5804E+02
  13.790  0.3989E+01  0.5808E+02
  13.800  0.4061E+01  0.5812E+02
  13.810  0.4138E+01  0.5816E+02
  13.820  0.4290E+01  0.5820E+02
  13.830  0.4573E+01  0.5825E+02
  13.840  0.4747E+01  0.5829E+02
  13.850  0.4996E+01  0.5834E+02
  13.860  0.5414E+01  0.5839E+02
  13.870  0.5657E+01  0.5845E+02
  13.880  0.5963E+01  0.5851E+02
  13.890  0.6227E+01  0.5857E+02
  13.900  0.6061E+01  0.5863E+02
  13.910  0.6088E+01  0.5869E+02
  13.920  0.6357E+01  0.5875E+02
  13.930  0.7052E+01  0.5882E+02
  13.940  0.6751E+01  0.5889E+02
  13.950  0.5670E+01  0.5896E+02
  13.960  0.5004E+01  0.5901E+02
  13.970  0.3377E+01  0.5905E+02
  13.980  0.2994E+01  0.5908E+02
  13.990  0.3523E+01  0.5911E+02
  14.000  0.3406E+01  0.5915E+02
  14.010  0.3338E+01  0.5919E+02
  14.020  0.3226E+01  0.5922E+02
  14.030  0.3201E+01  0.5925E+02
  14.040  0.3198E+01  0.5928E+02
  14.050  0.3239E+01  0.5932E+02
  14.060  0.3251E+01  0.5935E+02
  14.070  0.3134E+01  0.5938E+02
  14.080  0.3075E+01  0.5941E+02
  14.090  0.3053E+01  0.5944E+02
  14.100  0.3040E+01  0.5947E+02
  14.110  0.3022E+01  0.5950E+02
  14.120  0.3036E+01  0.5953E+02
  14.130  0.3064E+01  0.5956E+02
  14.140  0.3116E+01  0.5959E+02
  14.150  0.3289E+01  0.5963E+02
  14.160  0.3437E+01  0.5966E+02
  14.170  0.3606E+01  0.5969E+02
  14.180  0.3773E+01  0.5973E+02
  14.190  0.3854E+01  0.5977E+02
  14.200  0.3945E+01  0.5981E+02
  14.210  0.3943E+01  0.5985E+02
  14.220  0.3985E+01  0.5989E+02
  14.230  0.4042E+01  0.5993E+02
  14.240  0.4128E+01  0.5997E+02
  14.250  0.4266E+01  0.6001E+02
  14.260  0.4536E+01  0.6005E+02
  14.270  0.6153E+01  0.6011E+02
  14.280  0.4582E+01  0.6016E+02
  14.290  0.4325E+01  0.6020E+02
  14.300  0.4237E+01  0.6025E+02
  14.310  0.3933E+01  0.6029E+02
  14.320  0.3731E+01  0.6033E+02
  14.330  0.3526E+01  0.6036E+02
  14.340  0.3361E+01  0.6040E+02
  14.350  0.3178E+01  0.6043E+02
  14.360  0.3363E+01  0.6046E+02
  14.370  0.3450E+01  0.6050E+02
  14.380  0.3426E+01  0.6053E+02
  14.390  0.3626E+01  0.6057E+02
  14.400  0.3630E+01  0.6060E+02
  14.410  0.3870E+01  0.6064E+02
  14.420  0.3850E+01  0.6068E+02
  14.430  0.3647E+01  0.6072E+02
  14.440  0.3501E+01  0.6075E+02
  14.450  0.3509E+01  0.6079E+02
  14.460  0.3498E+01  0.6082E+02
  14.470  0.3460E+01  0.6086E+02
  14.480  0.3472E+01  0.6089E+02
  14.490  0.3491E+01  0.6093E+02
  14.500  0.3470E+01  0.6096E+02
  14.510  0.3464E+01  0.6100E+02
  14.520  0.3479E+01  0.6103E+02
  14.530  0.3458E+01  0.6106E+02
  14.540  0.3467E+01  0.6110E+02
  14.550  0.3450E+01  0.6113E+02
  14.560  0.3440E+01  0.6117E+02
  14.570  0.3453E+01  0.6120E+02
  14.580  0.3463E+01  0.6124E+02
  14.590  0.3475E+01  0.6127E+02
  14.600  0.3470E+01  0.6131E+02
  14.610  0.3462E+01  0.6134E+02
  14.620  0.3486E+01  0.6138E+02
  14.630  0.3495E+01  0.6141E+02
  14.640  0.3474E+01  0.6145E+02
  14.650  0.3473E+01  0.6148E+02
  14.660  0.3504E+01  0.6152E+02
  14.670  0.3533E+01  0.6155E+02
  14.680  0.3547E+01  0.6159E+02
  14.690  0.3639E+01  0.6162E+02
  14.700  0.3745E+01  0.6166E+02
  14.710  0.3849E+01  0.6170E+02
  14.720  0.3878E+01  0.6174E+02
  14.730  0.3871E+01  0.6177E+02
  14.740  0.3875E+01  0.6181E+02
  14.750  0.3893E+01  0.6185E+02
  14.760  0.3941E+01  0.6189E+02
  14.770  0.3953E+01  0.6193E+02
  14.780  0.3977E+01  0.6197E+02
  14.790  0.4007E+01  0.6201E+02
  14.800  0.4012E+01  0.6205E+02
  14.810  0.4023E+01  0.6209E+02
  14.820  0.4059E+01  0.6213E+02
  14.830  0.4067E+01  0.6217E+02
  14.840  0.4117E+01  0.6221E+02
  14.850  0.4404E+01  0.6225E+02
  14.860  0.4627E+01  0.6230E+02
  14.870  0.4218E+01  0.6234E+02
  14.880  0.3770E+01  0.6238E+02
  14.890  0.3553E+01  0.6242E+02
  14.900  0.3360E+01  0.6245E+02
  14.910  0.3219E+01  0.6249E+02
  14.920  0.3109E+01  0.6252E+02
  14.930  0.2972E+01  0.6255E+02
  14.940  0.2876E+01  0.6258E+02
  14.950  0.2775E+01  0.6261E+02
  14.960  0.2692E+01  0.6263E+02
  14.970  0.2615E+01  0.6266E+02
  14.980  0.2562E+01  0.6268E+02
  14.990  0.2523E+01  0.6271E+02
  15.000  0.2454E+01  0.6274E+02
