#  E (eV)   dos(E)     Int dos(E) EFermi =    4.196 eV
 -15.000  0.0000E+00  0.0000E+00
 -14.990  0.0000E+00  0.0000E+00
 -14.980  0.0000E+00  0.0000E+00
 -14.970  0.0000E+00  0.0000E+00
 -14.960  0.0000E+00  0.0000E+00
 -14.950  0.0000E+00  0.0000E+00
 -14.940  0.0000E+00  0.0000E+00
 -14.930  0.0000E+00  0.0000E+00
 -14.920  0.0000E+00  0.0000E+00
 -14.910  0.0000E+00  0.0000E+00
 -14.900  0.0000E+00  0.0000E+00
 -14.890  0.0000E+00  0.0000E+00
 -14.880  0.0000E+00  0.0000E+00
 -14.870  0.0000E+00  0.0000E+00
 -14.860  0.0000E+00  0.0000E+00
 -14.850  0.0000E+00  0.0000E+00
 -14.840  0.0000E+00  0.0000E+00
 -14.830  0.0000E+00  0.0000E+00
 -14.820  0.0000E+00  0.0000E+00
 -14.810  0.0000E+00  0.0000E+00
 -14.800  0.0000E+00  0.0000E+00
 -14.790  0.0000E+00  0.0000E+00
 -14.780  0.0000E+00  0.0000E+00
 -14.770  0.0000E+00  0.0000E+00
 -14.760  0.0000E+00  0.0000E+00
 -14.750  0.0000E+00  0.0000E+00
 -14.740  0.0000E+00  0.0000E+00
 -14.730  0.0000E+00  0.0000E+00
 -14.720  0.0000E+00  0.0000E+00
 -14.710  0.0000E+00  0.0000E+00
 -14.700  0.0000E+00  0.0000E+00
 -14.690  0.0000E+00  0.0000E+00
 -14.680  0.0000E+00  0.0000E+00
 -14.670  0.0000E+00  0.0000E+00
 -14.660  0.0000E+00  0.0000E+00
 -14.650  0.0000E+00  0.0000E+00
 -14.640  0.0000E+00  0.0000E+00
 -14.630  0.0000E+00  0.0000E+00
 -14.620  0.0000E+00  0.0000E+00
 -14.610  0.0000E+00  0.0000E+00
 -14.600  0.0000E+00  0.0000E+00
 -14.590  0.0000E+00  0.0000E+00
 -14.580  0.0000E+00  0.0000E+00
 -14.570  0.0000E+00  0.0000E+00
 -14.560  0.0000E+00  0.0000E+00
 -14.550  0.0000E+00  0.0000E+00
 -14.540  0.0000E+00  0.0000E+00
 -14.530  0.0000E+00  0.0000E+00
 -14.520  0.0000E+00  0.0000E+00
 -14.510  0.0000E+00  0.0000E+00
 -14.500  0.0000E+00  0.0000E+00
 -14.490  0.0000E+00  0.0000E+00
 -14.480  0.0000E+00  0.0000E+00
 -14.470  0.0000E+00  0.0000E+00
 -14.460  0.0000E+00  0.0000E+00
 -14.450  0.0000E+00  0.0000E+00
 -14.440  0.0000E+00  0.0000E+00
 -14.430  0.0000E+00  0.0000E+00
 -14.420  0.0000E+00  0.0000E+00
 -14.410  0.0000E+00  0.0000E+00
 -14.400  0.0000E+00  0.0000E+00
 -14.390  0.0000E+00  0.0000E+00
 -14.380  0.0000E+00  0.0000E+00
 -14.370  0.0000E+00  0.0000E+00
 -14.360  0.0000E+00  0.0000E+00
 -14.350  0.0000E+00  0.0000E+00
 -14.340  0.0000E+00  0.0000E+00
 -14.330  0.0000E+00  0.0000E+00
 -14.320  0.0000E+00  0.0000E+00
 -14.310  0.0000E+00  0.0000E+00
 -14.300  0.0000E+00  0.0000E+00
 -14.290  0.0000E+00  0.0000E+00
 -14.280  0.0000E+00  0.0000E+00
 -14.270  0.0000E+00  0.0000E+00
 -14.260  0.0000E+00  0.0000E+00
 -14.250  0.0000E+00  0.0000E+00
 -14.240  0.0000E+00  0.0000E+00
 -14.230  0.0000E+00  0.0000E+00
 -14.220  0.0000E+00  0.0000E+00
 -14.210  0.0000E+00  0.0000E+00
 -14.200  0.0000E+00  0.0000E+00
 -14.190  0.0000E+00  0.0000E+00
 -14.180  0.0000E+00  0.0000E+00
 -14.170  0.0000E+00  0.0000E+00
 -14.160  0.0000E+00  0.0000E+00
 -14.150  0.0000E+00  0.0000E+00
 -14.140  0.0000E+00  0.0000E+00
 -14.130  0.0000E+00  0.0000E+00
 -14.120  0.0000E+00  0.0000E+00
 -14.110  0.0000E+00  0.0000E+00
 -14.100  0.0000E+00  0.0000E+00
 -14.090  0.0000E+00  0.0000E+00
 -14.080  0.0000E+00  0.0000E+00
 -14.070  0.0000E+00  0.0000E+00
 -14.060  0.0000E+00  0.0000E+00
 -14.050  0.0000E+00  0.0000E+00
 -14.040  0.0000E+00  0.0000E+00
 -14.030  0.0000E+00  0.0000E+00
 -14.020  0.0000E+00  0.0000E+00
 -14.010  0.0000E+00  0.0000E+00
 -14.000  0.0000E+00  0.0000E+00
 -13.990  0.0000E+00  0.0000E+00
 -13.980  0.0000E+00  0.0000E+00
 -13.970  0.0000E+00  0.0000E+00
 -13.960  0.0000E+00  0.0000E+00
 -13.950  0.0000E+00  0.0000E+00
 -13.940  0.0000E+00  0.0000E+00
 -13.930  0.0000E+00  0.0000E+00
 -13.920  0.0000E+00  0.0000E+00
 -13.910  0.0000E+00  0.0000E+00
 -13.900  0.0000E+00  0.0000E+00
 -13.890  0.0000E+00  0.0000E+00
 -13.880  0.0000E+00  0.0000E+00
 -13.870  0.0000E+00  0.0000E+00
 -13.860  0.0000E+00  0.0000E+00
 -13.850  0.0000E+00  0.0000E+00
 -13.840  0.0000E+00  0.0000E+00
 -13.830  0.0000E+00  0.0000E+00
 -13.820  0.0000E+00  0.0000E+00
 -13.810  0.0000E+00  0.0000E+00
 -13.800  0.0000E+00  0.0000E+00
 -13.790  0.0000E+00  0.0000E+00
 -13.780  0.0000E+00  0.0000E+00
 -13.770  0.0000E+00  0.0000E+00
 -13.760  0.0000E+00  0.0000E+00
 -13.750  0.0000E+00  0.0000E+00
 -13.740  0.0000E+00  0.0000E+00
 -13.730  0.0000E+00  0.0000E+00
 -13.720  0.0000E+00  0.0000E+00
 -13.710  0.0000E+00  0.0000E+00
 -13.700  0.0000E+00  0.0000E+00
 -13.690  0.0000E+00  0.0000E+00
 -13.680  0.0000E+00  0.0000E+00
 -13.670  0.0000E+00  0.0000E+00
 -13.660  0.0000E+00  0.0000E+00
 -13.650  0.0000E+00  0.0000E+00
 -13.640  0.0000E+00  0.0000E+00
 -13.630  0.0000E+00  0.0000E+00
 -13.620  0.0000E+00  0.0000E+00
 -13.610  0.0000E+00  0.0000E+00
 -13.600  0.0000E+00  0.0000E+00
 -13.590  0.0000E+00  0.0000E+00
 -13.580  0.0000E+00  0.0000E+00
 -13.570  0.0000E+00  0.0000E+00
 -13.560  0.0000E+00  0.0000E+00
 -13.550  0.0000E+00  0.0000E+00
 -13.540  0.0000E+00  0.0000E+00
 -13.530  0.0000E+00  0.0000E+00
 -13.520  0.0000E+00  0.0000E+00
 -13.510  0.0000E+00  0.0000E+00
 -13.500  0.0000E+00  0.0000E+00
 -13.490  0.0000E+00  0.0000E+00
 -13.480  0.0000E+00  0.0000E+00
 -13.470  0.0000E+00  0.0000E+00
 -13.460  0.0000E+00  0.0000E+00
 -13.450  0.0000E+00  0.0000E+00
 -13.440  0.0000E+00  0.0000E+00
 -13.430  0.0000E+00  0.0000E+00
 -13.420  0.0000E+00  0.0000E+00
 -13.410  0.0000E+00  0.0000E+00
 -13.400  0.0000E+00  0.0000E+00
 -13.390  0.0000E+00  0.0000E+00
 -13.380  0.0000E+00  0.0000E+00
 -13.370  0.0000E+00  0.0000E+00
 -13.360  0.0000E+00  0.0000E+00
 -13.350  0.0000E+00  0.0000E+00
 -13.340  0.0000E+00  0.0000E+00
 -13.330  0.0000E+00  0.0000E+00
 -13.320  0.0000E+00  0.0000E+00
 -13.310  0.0000E+00  0.0000E+00
 -13.300  0.0000E+00  0.0000E+00
 -13.290  0.0000E+00  0.0000E+00
 -13.280  0.0000E+00  0.0000E+00
 -13.270  0.0000E+00  0.0000E+00
 -13.260  0.0000E+00  0.0000E+00
 -13.250  0.0000E+00  0.0000E+00
 -13.240  0.0000E+00  0.0000E+00
 -13.230  0.0000E+00  0.0000E+00
 -13.220  0.0000E+00  0.0000E+00
 -13.210  0.0000E+00  0.0000E+00
 -13.200  0.0000E+00  0.0000E+00
 -13.190  0.0000E+00  0.0000E+00
 -13.180  0.0000E+00  0.0000E+00
 -13.170  0.0000E+00  0.0000E+00
 -13.160  0.0000E+00  0.0000E+00
 -13.150  0.0000E+00  0.0000E+00
 -13.140  0.0000E+00  0.0000E+00
 -13.130  0.0000E+00  0.0000E+00
 -13.120  0.0000E+00  0.0000E+00
 -13.110  0.0000E+00  0.0000E+00
 -13.100  0.0000E+00  0.0000E+00
 -13.090  0.0000E+00  0.0000E+00
 -13.080  0.0000E+00  0.0000E+00
 -13.070  0.0000E+00  0.0000E+00
 -13.060  0.0000E+00  0.0000E+00
 -13.050  0.0000E+00  0.0000E+00
 -13.040  0.0000E+00  0.0000E+00
 -13.030  0.0000E+00  0.0000E+00
 -13.020  0.0000E+00  0.0000E+00
 -13.010  0.0000E+00  0.0000E+00
 -13.000  0.0000E+00  0.0000E+00
 -12.990  0.0000E+00  0.0000E+00
 -12.980  0.0000E+00  0.0000E+00
 -12.970  0.0000E+00  0.0000E+00
 -12.960  0.0000E+00  0.0000E+00
 -12.950  0.0000E+00  0.0000E+00
 -12.940  0.0000E+00  0.0000E+00
 -12.930  0.0000E+00  0.0000E+00
 -12.920  0.0000E+00  0.0000E+00
 -12.910  0.0000E+00  0.0000E+00
 -12.900  0.0000E+00  0.0000E+00
 -12.890  0.0000E+00  0.0000E+00
 -12.880  0.0000E+00  0.0000E+00
 -12.870  0.0000E+00  0.0000E+00
 -12.860  0.0000E+00  0.0000E+00
 -12.850  0.0000E+00  0.0000E+00
 -12.840  0.0000E+00  0.0000E+00
 -12.830  0.0000E+00  0.0000E+00
 -12.820  0.0000E+00  0.0000E+00
 -12.810  0.0000E+00  0.0000E+00
 -12.800  0.0000E+00  0.0000E+00
 -12.790  0.0000E+00  0.0000E+00
 -12.780  0.0000E+00  0.0000E+00
 -12.770  0.0000E+00  0.0000E+00
 -12.760  0.0000E+00  0.0000E+00
 -12.750  0.0000E+00  0.0000E+00
 -12.740  0.0000E+00  0.0000E+00
 -12.730  0.0000E+00  0.0000E+00
 -12.720  0.0000E+00  0.0000E+00
 -12.710  0.0000E+00  0.0000E+00
 -12.700  0.0000E+00  0.0000E+00
 -12.690  0.0000E+00  0.0000E+00
 -12.680  0.0000E+00  0.0000E+00
 -12.670  0.0000E+00  0.0000E+00
 -12.660  0.0000E+00  0.0000E+00
 -12.650  0.0000E+00  0.0000E+00
 -12.640  0.0000E+00  0.0000E+00
 -12.630  0.0000E+00  0.0000E+00
 -12.620  0.0000E+00  0.0000E+00
 -12.610  0.0000E+00  0.0000E+00
 -12.600  0.0000E+00  0.0000E+00
 -12.590  0.0000E+00  0.0000E+00
 -12.580  0.0000E+00  0.0000E+00
 -12.570  0.0000E+00  0.0000E+00
 -12.560  0.0000E+00  0.0000E+00
 -12.550  0.0000E+00  0.0000E+00
 -12.540  0.0000E+00  0.0000E+00
 -12.530  0.0000E+00  0.0000E+00
 -12.520  0.0000E+00  0.0000E+00
 -12.510  0.0000E+00  0.0000E+00
 -12.500  0.0000E+00  0.0000E+00
 -12.490  0.0000E+00  0.0000E+00
 -12.480  0.0000E+00  0.0000E+00
 -12.470  0.0000E+00  0.0000E+00
 -12.460  0.0000E+00  0.0000E+00
 -12.450  0.0000E+00  0.0000E+00
 -12.440  0.0000E+00  0.0000E+00
 -12.430  0.0000E+00  0.0000E+00
 -12.420  0.0000E+00  0.0000E+00
 -12.410  0.0000E+00  0.0000E+00
 -12.400  0.0000E+00  0.0000E+00
 -12.390  0.0000E+00  0.0000E+00
 -12.380  0.0000E+00  0.0000E+00
 -12.370  0.0000E+00  0.0000E+00
 -12.360  0.0000E+00  0.0000E+00
 -12.350  0.0000E+00  0.0000E+00
 -12.340  0.0000E+00  0.0000E+00
 -12.330  0.0000E+00  0.0000E+00
 -12.320  0.0000E+00  0.0000E+00
 -12.310  0.0000E+00  0.0000E+00
 -12.300  0.0000E+00  0.0000E+00
 -12.290  0.0000E+00  0.0000E+00
 -12.280  0.0000E+00  0.0000E+00
 -12.270  0.0000E+00  0.0000E+00
 -12.260  0.0000E+00  0.0000E+00
 -12.250  0.0000E+00  0.0000E+00
 -12.240  0.0000E+00  0.0000E+00
 -12.230  0.0000E+00  0.0000E+00
 -12.220  0.0000E+00  0.0000E+00
 -12.210  0.0000E+00  0.0000E+00
 -12.200  0.0000E+00  0.0000E+00
 -12.190  0.0000E+00  0.0000E+00
 -12.180  0.0000E+00  0.0000E+00
 -12.170  0.0000E+00  0.0000E+00
 -12.160  0.0000E+00  0.0000E+00
 -12.150  0.0000E+00  0.0000E+00
 -12.140  0.0000E+00  0.0000E+00
 -12.130  0.0000E+00  0.0000E+00
 -12.120  0.0000E+00  0.0000E+00
 -12.110  0.0000E+00  0.0000E+00
 -12.100  0.0000E+00  0.0000E+00
 -12.090  0.0000E+00  0.0000E+00
 -12.080  0.0000E+00  0.0000E+00
 -12.070  0.0000E+00  0.0000E+00
 -12.060  0.0000E+00  0.0000E+00
 -12.050  0.0000E+00  0.0000E+00
 -12.040  0.0000E+00  0.0000E+00
 -12.030  0.0000E+00  0.0000E+00
 -12.020  0.0000E+00  0.0000E+00
 -12.010  0.0000E+00  0.0000E+00
 -12.000  0.0000E+00  0.0000E+00
 -11.990  0.0000E+00  0.0000E+00
 -11.980  0.0000E+00  0.0000E+00
 -11.970  0.0000E+00  0.0000E+00
 -11.960  0.0000E+00  0.0000E+00
 -11.950  0.0000E+00  0.0000E+00
 -11.940  0.0000E+00  0.0000E+00
 -11.930  0.0000E+00  0.0000E+00
 -11.920  0.0000E+00  0.0000E+00
 -11.910  0.0000E+00  0.0000E+00
 -11.900  0.0000E+00  0.0000E+00
 -11.890  0.0000E+00  0.0000E+00
 -11.880  0.0000E+00  0.0000E+00
 -11.870  0.0000E+00  0.0000E+00
 -11.860  0.0000E+00  0.0000E+00
 -11.850  0.0000E+00  0.0000E+00
 -11.840  0.0000E+00  0.0000E+00
 -11.830  0.0000E+00  0.0000E+00
 -11.820  0.0000E+00  0.0000E+00
 -11.810  0.0000E+00  0.0000E+00
 -11.800  0.0000E+00  0.0000E+00
 -11.790  0.0000E+00  0.0000E+00
 -11.780  0.0000E+00  0.0000E+00
 -11.770  0.0000E+00  0.0000E+00
 -11.760  0.0000E+00  0.0000E+00
 -11.750  0.0000E+00  0.0000E+00
 -11.740  0.0000E+00  0.0000E+00
 -11.730  0.0000E+00  0.0000E+00
 -11.720  0.0000E+00  0.0000E+00
 -11.710  0.0000E+00  0.0000E+00
 -11.700  0.0000E+00  0.0000E+00
 -11.690  0.0000E+00  0.0000E+00
 -11.680  0.0000E+00  0.0000E+00
 -11.670  0.0000E+00  0.0000E+00
 -11.660  0.0000E+00  0.0000E+00
 -11.650  0.0000E+00  0.0000E+00
 -11.640  0.0000E+00  0.0000E+00
 -11.630  0.0000E+00  0.0000E+00
 -11.620  0.0000E+00  0.0000E+00
 -11.610  0.0000E+00  0.0000E+00
 -11.600  0.0000E+00  0.0000E+00
 -11.590  0.0000E+00  0.0000E+00
 -11.580  0.0000E+00  0.0000E+00
 -11.570  0.0000E+00  0.0000E+00
 -11.560  0.0000E+00  0.0000E+00
 -11.550  0.0000E+00  0.0000E+00
 -11.540  0.0000E+00  0.0000E+00
 -11.530  0.0000E+00  0.0000E+00
 -11.520  0.0000E+00  0.0000E+00
 -11.510  0.0000E+00  0.0000E+00
 -11.500  0.0000E+00  0.0000E+00
 -11.490  0.0000E+00  0.0000E+00
 -11.480  0.0000E+00  0.0000E+00
 -11.470  0.0000E+00  0.0000E+00
 -11.460  0.0000E+00  0.0000E+00
 -11.450  0.0000E+00  0.0000E+00
 -11.440  0.0000E+00  0.0000E+00
 -11.430  0.0000E+00  0.0000E+00
 -11.420  0.0000E+00  0.0000E+00
 -11.410  0.0000E+00  0.0000E+00
 -11.400  0.0000E+00  0.0000E+00
 -11.390  0.0000E+00  0.0000E+00
 -11.380  0.0000E+00  0.0000E+00
 -11.370  0.0000E+00  0.0000E+00
 -11.360  0.0000E+00  0.0000E+00
 -11.350  0.0000E+00  0.0000E+00
 -11.340  0.0000E+00  0.0000E+00
 -11.330  0.0000E+00  0.0000E+00
 -11.320  0.0000E+00  0.0000E+00
 -11.310  0.0000E+00  0.0000E+00
 -11.300  0.0000E+00  0.0000E+00
 -11.290  0.0000E+00  0.0000E+00
 -11.280  0.0000E+00  0.0000E+00
 -11.270  0.0000E+00  0.0000E+00
 -11.260  0.0000E+00  0.0000E+00
 -11.250  0.0000E+00  0.0000E+00
 -11.240  0.0000E+00  0.0000E+00
 -11.230  0.0000E+00  0.0000E+00
 -11.220  0.0000E+00  0.0000E+00
 -11.210  0.0000E+00  0.0000E+00
 -11.200  0.0000E+00  0.0000E+00
 -11.190  0.0000E+00  0.0000E+00
 -11.180  0.0000E+00  0.0000E+00
 -11.170  0.0000E+00  0.0000E+00
 -11.160  0.0000E+00  0.0000E+00
 -11.150  0.0000E+00  0.0000E+00
 -11.140  0.0000E+00  0.0000E+00
 -11.130  0.0000E+00  0.0000E+00
 -11.120  0.0000E+00  0.0000E+00
 -11.110  0.0000E+00  0.0000E+00
 -11.100  0.0000E+00  0.0000E+00
 -11.090  0.0000E+00  0.0000E+00
 -11.080  0.0000E+00  0.0000E+00
 -11.070  0.0000E+00  0.0000E+00
 -11.060  0.0000E+00  0.0000E+00
 -11.050  0.0000E+00  0.0000E+00
 -11.040  0.0000E+00  0.0000E+00
 -11.030  0.0000E+00  0.0000E+00
 -11.020  0.0000E+00  0.0000E+00
 -11.010  0.0000E+00  0.0000E+00
 -11.000  0.0000E+00  0.0000E+00
 -10.990  0.0000E+00  0.0000E+00
 -10.980  0.0000E+00  0.0000E+00
 -10.970  0.0000E+00  0.0000E+00
 -10.960  0.0000E+00  0.0000E+00
 -10.950  0.0000E+00  0.0000E+00
 -10.940  0.0000E+00  0.0000E+00
 -10.930  0.0000E+00  0.0000E+00
 -10.920  0.0000E+00  0.0000E+00
 -10.910  0.0000E+00  0.0000E+00
 -10.900  0.0000E+00  0.0000E+00
 -10.890  0.0000E+00  0.0000E+00
 -10.880  0.0000E+00  0.0000E+00
 -10.870  0.0000E+00  0.0000E+00
 -10.860  0.0000E+00  0.0000E+00
 -10.850  0.0000E+00  0.0000E+00
 -10.840  0.0000E+00  0.0000E+00
 -10.830  0.0000E+00  0.0000E+00
 -10.820  0.0000E+00  0.0000E+00
 -10.810  0.0000E+00  0.0000E+00
 -10.800  0.0000E+00  0.0000E+00
 -10.790  0.0000E+00  0.0000E+00
 -10.780  0.0000E+00  0.0000E+00
 -10.770  0.0000E+00  0.0000E+00
 -10.760  0.0000E+00  0.0000E+00
 -10.750  0.0000E+00  0.0000E+00
 -10.740  0.0000E+00  0.0000E+00
 -10.730  0.0000E+00  0.0000E+00
 -10.720  0.0000E+00  0.0000E+00
 -10.710  0.0000E+00  0.0000E+00
 -10.700  0.0000E+00  0.0000E+00
 -10.690  0.0000E+00  0.0000E+00
 -10.680  0.0000E+00  0.0000E+00
 -10.670  0.0000E+00  0.0000E+00
 -10.660  0.0000E+00  0.0000E+00
 -10.650  0.0000E+00  0.0000E+00
 -10.640  0.0000E+00  0.0000E+00
 -10.630  0.0000E+00  0.0000E+00
 -10.620  0.0000E+00  0.0000E+00
 -10.610  0.0000E+00  0.0000E+00
 -10.600  0.0000E+00  0.0000E+00
 -10.590  0.0000E+00  0.0000E+00
 -10.580  0.0000E+00  0.0000E+00
 -10.570  0.0000E+00  0.0000E+00
 -10.560  0.0000E+00  0.0000E+00
 -10.550  0.0000E+00  0.0000E+00
 -10.540  0.0000E+00  0.0000E+00
 -10.530  0.0000E+00  0.0000E+00
 -10.520  0.0000E+00  0.0000E+00
 -10.510  0.0000E+00  0.0000E+00
 -10.500  0.0000E+00  0.0000E+00
 -10.490  0.0000E+00  0.0000E+00
 -10.480  0.0000E+00  0.0000E+00
 -10.470  0.0000E+00  0.0000E+00
 -10.460  0.0000E+00  0.0000E+00
 -10.450  0.0000E+00  0.0000E+00
 -10.440  0.0000E+00  0.0000E+00
 -10.430  0.0000E+00  0.0000E+00
 -10.420  0.0000E+00  0.0000E+00
 -10.410  0.0000E+00  0.0000E+00
 -10.400  0.0000E+00  0.0000E+00
 -10.390  0.0000E+00  0.0000E+00
 -10.380  0.0000E+00  0.0000E+00
 -10.370  0.0000E+00  0.0000E+00
 -10.360  0.0000E+00  0.0000E+00
 -10.350  0.0000E+00  0.0000E+00
 -10.340  0.0000E+00  0.0000E+00
 -10.330  0.0000E+00  0.0000E+00
 -10.320  0.0000E+00  0.0000E+00
 -10.310  0.0000E+00  0.0000E+00
 -10.300  0.0000E+00  0.0000E+00
 -10.290  0.0000E+00  0.0000E+00
 -10.280  0.0000E+00  0.0000E+00
 -10.270  0.0000E+00  0.0000E+00
 -10.260  0.0000E+00  0.0000E+00
 -10.250  0.0000E+00  0.0000E+00
 -10.240  0.0000E+00  0.0000E+00
 -10.230  0.0000E+00  0.0000E+00
 -10.220  0.0000E+00  0.0000E+00
 -10.210  0.0000E+00  0.0000E+00
 -10.200  0.0000E+00  0.0000E+00
 -10.190  0.0000E+00  0.0000E+00
 -10.180  0.0000E+00  0.0000E+00
 -10.170  0.0000E+00  0.0000E+00
 -10.160  0.0000E+00  0.0000E+00
 -10.150  0.0000E+00  0.0000E+00
 -10.140  0.0000E+00  0.0000E+00
 -10.130  0.0000E+00  0.0000E+00
 -10.120  0.0000E+00  0.0000E+00
 -10.110  0.0000E+00  0.0000E+00
 -10.100  0.0000E+00  0.0000E+00
 -10.090  0.0000E+00  0.0000E+00
 -10.080  0.0000E+00  0.0000E+00
 -10.070  0.0000E+00  0.0000E+00
 -10.060  0.0000E+00  0.0000E+00
 -10.050  0.0000E+00  0.0000E+00
 -10.040  0.0000E+00  0.0000E+00
 -10.030  0.0000E+00  0.0000E+00
 -10.020  0.0000E+00  0.0000E+00
 -10.010  0.0000E+00  0.0000E+00
 -10.000  0.0000E+00  0.0000E+00
  -9.990  0.0000E+00  0.0000E+00
  -9.980  0.0000E+00  0.0000E+00
  -9.970  0.0000E+00  0.0000E+00
  -9.960  0.0000E+00  0.0000E+00
  -9.950  0.0000E+00  0.0000E+00
  -9.940  0.0000E+00  0.0000E+00
  -9.930  0.0000E+00  0.0000E+00
  -9.920  0.0000E+00  0.0000E+00
  -9.910  0.0000E+00  0.0000E+00
  -9.900  0.0000E+00  0.0000E+00
  -9.890  0.0000E+00  0.0000E+00
  -9.880  0.0000E+00  0.0000E+00
  -9.870  0.0000E+00  0.0000E+00
  -9.860  0.0000E+00  0.0000E+00
  -9.850  0.0000E+00  0.0000E+00
  -9.840  0.0000E+00  0.0000E+00
  -9.830  0.0000E+00  0.0000E+00
  -9.820  0.0000E+00  0.0000E+00
  -9.810  0.0000E+00  0.0000E+00
  -9.800  0.0000E+00  0.0000E+00
  -9.790  0.0000E+00  0.0000E+00
  -9.780  0.0000E+00  0.0000E+00
  -9.770  0.0000E+00  0.0000E+00
  -9.760  0.0000E+00  0.0000E+00
  -9.750  0.0000E+00  0.0000E+00
  -9.740  0.3519E+00  0.4879E-03
  -9.730  0.5679E+00  0.5584E-02
  -9.720  0.1047E+01  0.1453E-01
  -9.710  0.1141E+01  0.2561E-01
  -9.700  0.1079E+01  0.3644E-01
  -9.690  0.1110E+01  0.4750E-01
  -9.680  0.1084E+01  0.5855E-01
  -9.670  0.1122E+01  0.6961E-01
  -9.660  0.1096E+01  0.8056E-01
  -9.650  0.1122E+01  0.9170E-01
  -9.640  0.1341E+01  0.1031E+00
  -9.630  0.1639E+01  0.1189E+00
  -9.620  0.2144E+01  0.1377E+00
  -9.610  0.2346E+01  0.1600E+00
  -9.600  0.2215E+01  0.1824E+00
  -9.590  0.2255E+01  0.2049E+00
  -9.580  0.2211E+01  0.2272E+00
  -9.570  0.2284E+01  0.2497E+00
  -9.560  0.2254E+01  0.2723E+00
  -9.550  0.2270E+01  0.2950E+00
  -9.540  0.2254E+01  0.3175E+00
  -9.530  0.2241E+01  0.3401E+00
  -9.520  0.2268E+01  0.3625E+00
  -9.510  0.2303E+01  0.3855E+00
  -9.500  0.2296E+01  0.4084E+00
  -9.490  0.2261E+01  0.4312E+00
  -9.480  0.2259E+01  0.4538E+00
  -9.470  0.2292E+01  0.4765E+00
  -9.460  0.2303E+01  0.4995E+00
  -9.450  0.2318E+01  0.5227E+00
  -9.440  0.2294E+01  0.5457E+00
  -9.430  0.2291E+01  0.5686E+00
  -9.420  0.2307E+01  0.5916E+00
  -9.410  0.2316E+01  0.6147E+00
  -9.400  0.2326E+01  0.6379E+00
  -9.390  0.2321E+01  0.6611E+00
  -9.380  0.2325E+01  0.6844E+00
  -9.370  0.2337E+01  0.7077E+00
  -9.360  0.2335E+01  0.7310E+00
  -9.350  0.2339E+01  0.7544E+00
  -9.340  0.2341E+01  0.7778E+00
  -9.330  0.2339E+01  0.8012E+00
  -9.320  0.2352E+01  0.8246E+00
  -9.310  0.2365E+01  0.8482E+00
  -9.300  0.2372E+01  0.8719E+00
  -9.290  0.2376E+01  0.8957E+00
  -9.280  0.2375E+01  0.9194E+00
  -9.270  0.2364E+01  0.9431E+00
  -9.260  0.2367E+01  0.9668E+00
  -9.250  0.2381E+01  0.9905E+00
  -9.240  0.2401E+01  0.1014E+01
  -9.230  0.2412E+01  0.1038E+01
  -9.220  0.2417E+01  0.1063E+01
  -9.210  0.2408E+01  0.1087E+01
  -9.200  0.2407E+01  0.1111E+01
  -9.190  0.2407E+01  0.1135E+01
  -9.180  0.2411E+01  0.1159E+01
  -9.170  0.2423E+01  0.1183E+01
  -9.160  0.2442E+01  0.1207E+01
  -9.150  0.2464E+01  0.1232E+01
  -9.140  0.2463E+01  0.1257E+01
  -9.130  0.2454E+01  0.1281E+01
  -9.120  0.2446E+01  0.1306E+01
  -9.110  0.2452E+01  0.1330E+01
  -9.100  0.2462E+01  0.1355E+01
  -9.090  0.2471E+01  0.1379E+01
  -9.080  0.2483E+01  0.1404E+01
  -9.070  0.2500E+01  0.1429E+01
  -9.060  0.2516E+01  0.1454E+01
  -9.050  0.2516E+01  0.1479E+01
  -9.040  0.2502E+01  0.1504E+01
  -9.030  0.2502E+01  0.1529E+01
  -9.020  0.2508E+01  0.1554E+01
  -9.010  0.2520E+01  0.1580E+01
  -9.000  0.2534E+01  0.1605E+01
  -8.990  0.2546E+01  0.1630E+01
  -8.980  0.2561E+01  0.1656E+01
  -8.970  0.2570E+01  0.1681E+01
  -8.960  0.2572E+01  0.1707E+01
  -8.950  0.2567E+01  0.1733E+01
  -8.940  0.2568E+01  0.1759E+01
  -8.930  0.2575E+01  0.1784E+01
  -8.920  0.2584E+01  0.1810E+01
  -8.910  0.2597E+01  0.1836E+01
  -8.900  0.2611E+01  0.1862E+01
  -8.890  0.2627E+01  0.1888E+01
  -8.880  0.2637E+01  0.1915E+01
  -8.870  0.2644E+01  0.1941E+01
  -8.860  0.2643E+01  0.1967E+01
  -8.850  0.2643E+01  0.1994E+01
  -8.840  0.2649E+01  0.2020E+01
  -8.830  0.2659E+01  0.2047E+01
  -8.820  0.2671E+01  0.2073E+01
  -8.810  0.2685E+01  0.2100E+01
  -8.800  0.2698E+01  0.2127E+01
  -8.790  0.2713E+01  0.2154E+01
  -8.780  0.2723E+01  0.2181E+01
  -8.770  0.2728E+01  0.2209E+01
  -8.760  0.2733E+01  0.2236E+01
  -8.750  0.2737E+01  0.2263E+01
  -8.740  0.2744E+01  0.2291E+01
  -8.730  0.2755E+01  0.2318E+01
  -8.720  0.2768E+01  0.2346E+01
  -8.710  0.2784E+01  0.2374E+01
  -8.700  0.2801E+01  0.2401E+01
  -8.690  0.2813E+01  0.2430E+01
  -8.680  0.2822E+01  0.2458E+01
  -8.670  0.2829E+01  0.2486E+01
  -8.660  0.2839E+01  0.2514E+01
  -8.650  0.2847E+01  0.2543E+01
  -8.640  0.2859E+01  0.2571E+01
  -8.630  0.2870E+01  0.2600E+01
  -8.620  0.2882E+01  0.2629E+01
  -8.610  0.2898E+01  0.2658E+01
  -8.600  0.2918E+01  0.2687E+01
  -8.590  0.2934E+01  0.2716E+01
  -8.580  0.2946E+01  0.2745E+01
  -8.570  0.2955E+01  0.2775E+01
  -8.560  0.2966E+01  0.2804E+01
  -8.550  0.2977E+01  0.2834E+01
  -8.540  0.2992E+01  0.2864E+01
  -8.530  0.3009E+01  0.2894E+01
  -8.520  0.3024E+01  0.2924E+01
  -8.510  0.3039E+01  0.2954E+01
  -8.500  0.3056E+01  0.2985E+01
  -8.490  0.3075E+01  0.3016E+01
  -8.480  0.3093E+01  0.3046E+01
  -8.470  0.3110E+01  0.3077E+01
  -8.460  0.3126E+01  0.3109E+01
  -8.450  0.3138E+01  0.3140E+01
  -8.440  0.3151E+01  0.3171E+01
  -8.430  0.3172E+01  0.3203E+01
  -8.420  0.3195E+01  0.3235E+01
  -8.410  0.3216E+01  0.3267E+01
  -8.400  0.3235E+01  0.3299E+01
  -8.390  0.3253E+01  0.3332E+01
  -8.380  0.3273E+01  0.3364E+01
  -8.370  0.3296E+01  0.3397E+01
  -8.360  0.3321E+01  0.3430E+01
  -8.350  0.3342E+01  0.3463E+01
  -8.340  0.3360E+01  0.3497E+01
  -8.330  0.3378E+01  0.3531E+01
  -8.320  0.3404E+01  0.3565E+01
  -8.310  0.3435E+01  0.3599E+01
  -8.300  0.3464E+01  0.3633E+01
  -8.290  0.3489E+01  0.3668E+01
  -8.280  0.3510E+01  0.3703E+01
  -8.270  0.3534E+01  0.3738E+01
  -8.260  0.3567E+01  0.3774E+01
  -8.250  0.3601E+01  0.3810E+01
  -8.240  0.3630E+01  0.3846E+01
  -8.230  0.3657E+01  0.3882E+01
  -8.220  0.3683E+01  0.3919E+01
  -8.210  0.3719E+01  0.3956E+01
  -8.200  0.3760E+01  0.3993E+01
  -8.190  0.3798E+01  0.4031E+01
  -8.180  0.3830E+01  0.4069E+01
  -8.170  0.3861E+01  0.4108E+01
  -8.160  0.3901E+01  0.4146E+01
  -8.150  0.3948E+01  0.4186E+01
  -8.140  0.3994E+01  0.4225E+01
  -8.130  0.4035E+01  0.4266E+01
  -8.120  0.4073E+01  0.4306E+01
  -8.110  0.4119E+01  0.4347E+01
  -8.100  0.4178E+01  0.4389E+01
  -8.090  0.4233E+01  0.4431E+01
  -8.080  0.4281E+01  0.4473E+01
  -8.070  0.4329E+01  0.4516E+01
  -8.060  0.4390E+01  0.4560E+01
  -8.050  0.4461E+01  0.4604E+01
  -8.040  0.4528E+01  0.4649E+01
  -8.030  0.4591E+01  0.4695E+01
  -8.020  0.4659E+01  0.4741E+01
  -8.010  0.4741E+01  0.4788E+01
  -8.000  0.4826E+01  0.4836E+01
  -7.990  0.4904E+01  0.4884E+01
  -7.980  0.4989E+01  0.4934E+01
  -7.970  0.5095E+01  0.4984E+01
  -7.960  0.5200E+01  0.5036E+01
  -7.950  0.5309E+01  0.5088E+01
  -7.940  0.5432E+01  0.5142E+01
  -7.930  0.5570E+01  0.5197E+01
  -7.920  0.5714E+01  0.5253E+01
  -7.910  0.5855E+01  0.5311E+01
  -7.900  0.6037E+01  0.5371E+01
  -7.890  0.6232E+01  0.5432E+01
  -7.880  0.6460E+01  0.5495E+01
  -7.870  0.6718E+01  0.5561E+01
  -7.860  0.7016E+01  0.5630E+01
  -7.850  0.7440E+01  0.5702E+01
  -7.840  0.7894E+01  0.5779E+01
  -7.830  0.8735E+01  0.5861E+01
  -7.820  0.9691E+01  0.5957E+01
  -7.810  0.9729E+01  0.6056E+01
  -7.800  0.9071E+01  0.6149E+01
  -7.790  0.9355E+01  0.6241E+01
  -7.780  0.1077E+02  0.6339E+01
  -7.770  0.9518E+01  0.6442E+01
  -7.760  0.8400E+01  0.6532E+01
  -7.750  0.7878E+01  0.6614E+01
  -7.740  0.7488E+01  0.6691E+01
  -7.730  0.7109E+01  0.6764E+01
  -7.720  0.6765E+01  0.6833E+01
  -7.710  0.6500E+01  0.6900E+01
  -7.700  0.6307E+01  0.6964E+01
  -7.690  0.6083E+01  0.7026E+01
  -7.680  0.5947E+01  0.7086E+01
  -7.670  0.5795E+01  0.7145E+01
  -7.660  0.5661E+01  0.7202E+01
  -7.650  0.5550E+01  0.7258E+01
  -7.640  0.5331E+01  0.7312E+01
  -7.630  0.5226E+01  0.7365E+01
  -7.620  0.5129E+01  0.7416E+01
  -7.610  0.5162E+01  0.7468E+01
  -7.600  0.4876E+01  0.7518E+01
  -7.590  0.4840E+01  0.7567E+01
  -7.580  0.4707E+01  0.7614E+01
  -7.570  0.4776E+01  0.7662E+01
  -7.560  0.4651E+01  0.7709E+01
  -7.550  0.4402E+01  0.7754E+01
  -7.540  0.4450E+01  0.7798E+01
  -7.530  0.4530E+01  0.7843E+01
  -7.520  0.4215E+01  0.7886E+01
  -7.510  0.3205E+01  0.7928E+01
  -7.500  0.2158E+01  0.7951E+01
  -7.490  0.1995E+01  0.7973E+01
  -7.480  0.1861E+01  0.7994E+01
  -7.470  0.0000E+00  0.8000E+01
  -7.460  0.0000E+00  0.8000E+01
  -7.450  0.0000E+00  0.8000E+01
  -7.440  0.0000E+00  0.8000E+01
  -7.430  0.0000E+00  0.8000E+01
  -7.420  0.0000E+00  0.8000E+01
  -7.410  0.0000E+00  0.8000E+01
  -7.400  0.0000E+00  0.8000E+01
  -7.390  0.0000E+00  0.8000E+01
  -7.380  0.0000E+00  0.8000E+01
  -7.370  0.0000E+00  0.8000E+01
  -7.360  0.0000E+00  0.8000E+01
  -7.350  0.0000E+00  0.8000E+01
  -7.340  0.0000E+00  0.8000E+01
  -7.330  0.0000E+00  0.8000E+01
  -7.320  0.0000E+00  0.8000E+01
  -7.310  0.0000E+00  0.8000E+01
  -7.300  0.0000E+00  0.8000E+01
  -7.290  0.0000E+00  0.8000E+01
  -7.280  0.0000E+00  0.8000E+01
  -7.270  0.0000E+00  0.8000E+01
  -7.260  0.0000E+00  0.8000E+01
  -7.250  0.0000E+00  0.8000E+01
  -7.240  0.0000E+00  0.8000E+01
  -7.230  0.0000E+00  0.8000E+01
  -7.220  0.0000E+00  0.8000E+01
  -7.210  0.0000E+00  0.8000E+01
  -7.200  0.0000E+00  0.8000E+01
  -7.190  0.0000E+00  0.8000E+01
  -7.180  0.0000E+00  0.8000E+01
  -7.170  0.0000E+00  0.8000E+01
  -7.160  0.0000E+00  0.8000E+01
  -7.150  0.0000E+00  0.8000E+01
  -7.140  0.0000E+00  0.8000E+01
  -7.130  0.0000E+00  0.8000E+01
  -7.120  0.0000E+00  0.8000E+01
  -7.110  0.0000E+00  0.8000E+01
  -7.100  0.0000E+00  0.8000E+01
  -7.090  0.0000E+00  0.8000E+01
  -7.080  0.0000E+00  0.8000E+01
  -7.070  0.0000E+00  0.8000E+01
  -7.060  0.0000E+00  0.8000E+01
  -7.050  0.0000E+00  0.8000E+01
  -7.040  0.0000E+00  0.8000E+01
  -7.030  0.0000E+00  0.8000E+01
  -7.020  0.0000E+00  0.8000E+01
  -7.010  0.0000E+00  0.8000E+01
  -7.000  0.0000E+00  0.8000E+01
  -6.990  0.0000E+00  0.8000E+01
  -6.980  0.0000E+00  0.8000E+01
  -6.970  0.0000E+00  0.8000E+01
  -6.960  0.0000E+00  0.8000E+01
  -6.950  0.0000E+00  0.8000E+01
  -6.940  0.0000E+00  0.8000E+01
  -6.930  0.0000E+00  0.8000E+01
  -6.920  0.0000E+00  0.8000E+01
  -6.910  0.0000E+00  0.8000E+01
  -6.900  0.0000E+00  0.8000E+01
  -6.890  0.0000E+00  0.8000E+01
  -6.880  0.0000E+00  0.8000E+01
  -6.870  0.0000E+00  0.8000E+01
  -6.860  0.0000E+00  0.8000E+01
  -6.850  0.0000E+00  0.8000E+01
  -6.840  0.0000E+00  0.8000E+01
  -6.830  0.0000E+00  0.8000E+01
  -6.820  0.0000E+00  0.8000E+01
  -6.810  0.0000E+00  0.8000E+01
  -6.800  0.0000E+00  0.8000E+01
  -6.790  0.0000E+00  0.8000E+01
  -6.780  0.0000E+00  0.8000E+01
  -6.770  0.0000E+00  0.8000E+01
  -6.760  0.0000E+00  0.8000E+01
  -6.750  0.0000E+00  0.8000E+01
  -6.740  0.0000E+00  0.8000E+01
  -6.730  0.0000E+00  0.8000E+01
  -6.720  0.0000E+00  0.8000E+01
  -6.710  0.0000E+00  0.8000E+01
  -6.700  0.0000E+00  0.8000E+01
  -6.690  0.0000E+00  0.8000E+01
  -6.680  0.0000E+00  0.8000E+01
  -6.670  0.0000E+00  0.8000E+01
  -6.660  0.0000E+00  0.8000E+01
  -6.650  0.0000E+00  0.8000E+01
  -6.640  0.0000E+00  0.8000E+01
  -6.630  0.0000E+00  0.8000E+01
  -6.620  0.0000E+00  0.8000E+01
  -6.610  0.0000E+00  0.8000E+01
  -6.600  0.0000E+00  0.8000E+01
  -6.590  0.0000E+00  0.8000E+01
  -6.580  0.0000E+00  0.8000E+01
  -6.570  0.0000E+00  0.8000E+01
  -6.560  0.0000E+00  0.8000E+01
  -6.550  0.0000E+00  0.8000E+01
  -6.540  0.0000E+00  0.8000E+01
  -6.530  0.0000E+00  0.8000E+01
  -6.520  0.0000E+00  0.8000E+01
  -6.510  0.0000E+00  0.8000E+01
  -6.500  0.0000E+00  0.8000E+01
  -6.490  0.0000E+00  0.8000E+01
  -6.480  0.0000E+00  0.8000E+01
  -6.470  0.0000E+00  0.8000E+01
  -6.460  0.0000E+00  0.8000E+01
  -6.450  0.0000E+00  0.8000E+01
  -6.440  0.0000E+00  0.8000E+01
  -6.430  0.0000E+00  0.8000E+01
  -6.420  0.0000E+00  0.8000E+01
  -6.410  0.0000E+00  0.8000E+01
  -6.400  0.0000E+00  0.8000E+01
  -6.390  0.0000E+00  0.8000E+01
  -6.380  0.0000E+00  0.8000E+01
  -6.370  0.0000E+00  0.8000E+01
  -6.360  0.0000E+00  0.8000E+01
  -6.350  0.0000E+00  0.8000E+01
  -6.340  0.0000E+00  0.8000E+01
  -6.330  0.0000E+00  0.8000E+01
  -6.320  0.0000E+00  0.8000E+01
  -6.310  0.0000E+00  0.8000E+01
  -6.300  0.0000E+00  0.8000E+01
  -6.290  0.0000E+00  0.8000E+01
  -6.280  0.0000E+00  0.8000E+01
  -6.270  0.0000E+00  0.8000E+01
  -6.260  0.0000E+00  0.8000E+01
  -6.250  0.0000E+00  0.8000E+01
  -6.240  0.0000E+00  0.8000E+01
  -6.230  0.0000E+00  0.8000E+01
  -6.220  0.0000E+00  0.8000E+01
  -6.210  0.0000E+00  0.8000E+01
  -6.200  0.0000E+00  0.8000E+01
  -6.190  0.0000E+00  0.8000E+01
  -6.180  0.0000E+00  0.8000E+01
  -6.170  0.0000E+00  0.8000E+01
  -6.160  0.0000E+00  0.8000E+01
  -6.150  0.0000E+00  0.8000E+01
  -6.140  0.0000E+00  0.8000E+01
  -6.130  0.0000E+00  0.8000E+01
  -6.120  0.0000E+00  0.8000E+01
  -6.110  0.0000E+00  0.8000E+01
  -6.100  0.0000E+00  0.8000E+01
  -6.090  0.0000E+00  0.8000E+01
  -6.080  0.0000E+00  0.8000E+01
  -6.070  0.0000E+00  0.8000E+01
  -6.060  0.0000E+00  0.8000E+01
  -6.050  0.0000E+00  0.8000E+01
  -6.040  0.0000E+00  0.8000E+01
  -6.030  0.0000E+00  0.8000E+01
  -6.020  0.0000E+00  0.8000E+01
  -6.010  0.0000E+00  0.8000E+01
  -6.000  0.0000E+00  0.8000E+01
  -5.990  0.0000E+00  0.8000E+01
  -5.980  0.0000E+00  0.8000E+01
  -5.970  0.0000E+00  0.8000E+01
  -5.960  0.0000E+00  0.8000E+01
  -5.950  0.0000E+00  0.8000E+01
  -5.940  0.0000E+00  0.8000E+01
  -5.930  0.0000E+00  0.8000E+01
  -5.920  0.0000E+00  0.8000E+01
  -5.910  0.0000E+00  0.8000E+01
  -5.900  0.0000E+00  0.8000E+01
  -5.890  0.0000E+00  0.8000E+01
  -5.880  0.0000E+00  0.8000E+01
  -5.870  0.0000E+00  0.8000E+01
  -5.860  0.0000E+00  0.8000E+01
  -5.850  0.0000E+00  0.8000E+01
  -5.840  0.0000E+00  0.8000E+01
  -5.830  0.0000E+00  0.8000E+01
  -5.820  0.0000E+00  0.8000E+01
  -5.810  0.0000E+00  0.8000E+01
  -5.800  0.0000E+00  0.8000E+01
  -5.790  0.0000E+00  0.8000E+01
  -5.780  0.0000E+00  0.8000E+01
  -5.770  0.0000E+00  0.8000E+01
  -5.760  0.0000E+00  0.8000E+01
  -5.750  0.0000E+00  0.8000E+01
  -5.740  0.0000E+00  0.8000E+01
  -5.730  0.0000E+00  0.8000E+01
  -5.720  0.0000E+00  0.8000E+01
  -5.710  0.0000E+00  0.8000E+01
  -5.700  0.0000E+00  0.8000E+01
  -5.690  0.0000E+00  0.8000E+01
  -5.680  0.0000E+00  0.8000E+01
  -5.670  0.0000E+00  0.8000E+01
  -5.660  0.0000E+00  0.8000E+01
  -5.650  0.0000E+00  0.8000E+01
  -5.640  0.0000E+00  0.8000E+01
  -5.630  0.0000E+00  0.8000E+01
  -5.620  0.0000E+00  0.8000E+01
  -5.610  0.0000E+00  0.8000E+01
  -5.600  0.0000E+00  0.8000E+01
  -5.590  0.0000E+00  0.8000E+01
  -5.580  0.0000E+00  0.8000E+01
  -5.570  0.0000E+00  0.8000E+01
  -5.560  0.0000E+00  0.8000E+01
  -5.550  0.0000E+00  0.8000E+01
  -5.540  0.0000E+00  0.8000E+01
  -5.530  0.0000E+00  0.8000E+01
  -5.520  0.0000E+00  0.8000E+01
  -5.510  0.0000E+00  0.8000E+01
  -5.500  0.0000E+00  0.8000E+01
  -5.490  0.0000E+00  0.8000E+01
  -5.480  0.0000E+00  0.8000E+01
  -5.470  0.0000E+00  0.8000E+01
  -5.460  0.0000E+00  0.8000E+01
  -5.450  0.0000E+00  0.8000E+01
  -5.440  0.0000E+00  0.8000E+01
  -5.430  0.0000E+00  0.8000E+01
  -5.420  0.0000E+00  0.8000E+01
  -5.410  0.0000E+00  0.8000E+01
  -5.400  0.0000E+00  0.8000E+01
  -5.390  0.0000E+00  0.8000E+01
  -5.380  0.0000E+00  0.8000E+01
  -5.370  0.0000E+00  0.8000E+01
  -5.360  0.0000E+00  0.8000E+01
  -5.350  0.0000E+00  0.8000E+01
  -5.340  0.0000E+00  0.8000E+01
  -5.330  0.0000E+00  0.8000E+01
  -5.320  0.0000E+00  0.8000E+01
  -5.310  0.0000E+00  0.8000E+01
  -5.300  0.0000E+00  0.8000E+01
  -5.290  0.0000E+00  0.8000E+01
  -5.280  0.0000E+00  0.8000E+01
  -5.270  0.0000E+00  0.8000E+01
  -5.260  0.0000E+00  0.8000E+01
  -5.250  0.0000E+00  0.8000E+01
  -5.240  0.0000E+00  0.8000E+01
  -5.230  0.0000E+00  0.8000E+01
  -5.220  0.0000E+00  0.8000E+01
  -5.210  0.0000E+00  0.8000E+01
  -5.200  0.0000E+00  0.8000E+01
  -5.190  0.0000E+00  0.8000E+01
  -5.180  0.0000E+00  0.8000E+01
  -5.170  0.0000E+00  0.8000E+01
  -5.160  0.0000E+00  0.8000E+01
  -5.150  0.0000E+00  0.8000E+01
  -5.140  0.0000E+00  0.8000E+01
  -5.130  0.0000E+00  0.8000E+01
  -5.120  0.0000E+00  0.8000E+01
  -5.110  0.0000E+00  0.8000E+01
  -5.100  0.0000E+00  0.8000E+01
  -5.090  0.0000E+00  0.8000E+01
  -5.080  0.0000E+00  0.8000E+01
  -5.070  0.0000E+00  0.8000E+01
  -5.060  0.0000E+00  0.8000E+01
  -5.050  0.0000E+00  0.8000E+01
  -5.040  0.0000E+00  0.8000E+01
  -5.030  0.0000E+00  0.8000E+01
  -5.020  0.0000E+00  0.8000E+01
  -5.010  0.0000E+00  0.8000E+01
  -5.000  0.0000E+00  0.8000E+01
  -4.990  0.0000E+00  0.8000E+01
  -4.980  0.0000E+00  0.8000E+01
  -4.970  0.0000E+00  0.8000E+01
  -4.960  0.0000E+00  0.8000E+01
  -4.950  0.0000E+00  0.8000E+01
  -4.940  0.0000E+00  0.8000E+01
  -4.930  0.0000E+00  0.8000E+01
  -4.920  0.0000E+00  0.8000E+01
  -4.910  0.0000E+00  0.8000E+01
  -4.900  0.0000E+00  0.8000E+01
  -4.890  0.0000E+00  0.8000E+01
  -4.880  0.0000E+00  0.8000E+01
  -4.870  0.0000E+00  0.8000E+01
  -4.860  0.0000E+00  0.8000E+01
  -4.850  0.0000E+00  0.8000E+01
  -4.840  0.0000E+00  0.8000E+01
  -4.830  0.0000E+00  0.8000E+01
  -4.820  0.0000E+00  0.8000E+01
  -4.810  0.0000E+00  0.8000E+01
  -4.800  0.0000E+00  0.8000E+01
  -4.790  0.0000E+00  0.8000E+01
  -4.780  0.0000E+00  0.8000E+01
  -4.770  0.0000E+00  0.8000E+01
  -4.760  0.0000E+00  0.8000E+01
  -4.750  0.0000E+00  0.8000E+01
  -4.740  0.0000E+00  0.8000E+01
  -4.730  0.0000E+00  0.8000E+01
  -4.720  0.0000E+00  0.8000E+01
  -4.710  0.0000E+00  0.8000E+01
  -4.700  0.0000E+00  0.8000E+01
  -4.690  0.0000E+00  0.8000E+01
  -4.680  0.0000E+00  0.8000E+01
  -4.670  0.0000E+00  0.8000E+01
  -4.660  0.0000E+00  0.8000E+01
  -4.650  0.0000E+00  0.8000E+01
  -4.640  0.0000E+00  0.8000E+01
  -4.630  0.0000E+00  0.8000E+01
  -4.620  0.0000E+00  0.8000E+01
  -4.610  0.0000E+00  0.8000E+01
  -4.600  0.0000E+00  0.8000E+01
  -4.590  0.0000E+00  0.8000E+01
  -4.580  0.0000E+00  0.8000E+01
  -4.570  0.0000E+00  0.8000E+01
  -4.560  0.0000E+00  0.8000E+01
  -4.550  0.0000E+00  0.8000E+01
  -4.540  0.0000E+00  0.8000E+01
  -4.530  0.0000E+00  0.8000E+01
  -4.520  0.0000E+00  0.8000E+01
  -4.510  0.0000E+00  0.8000E+01
  -4.500  0.0000E+00  0.8000E+01
  -4.490  0.0000E+00  0.8000E+01
  -4.480  0.0000E+00  0.8000E+01
  -4.470  0.0000E+00  0.8000E+01
  -4.460  0.0000E+00  0.8000E+01
  -4.450  0.0000E+00  0.8000E+01
  -4.440  0.0000E+00  0.8000E+01
  -4.430  0.0000E+00  0.8000E+01
  -4.420  0.0000E+00  0.8000E+01
  -4.410  0.0000E+00  0.8000E+01
  -4.400  0.0000E+00  0.8000E+01
  -4.390  0.0000E+00  0.8000E+01
  -4.380  0.0000E+00  0.8000E+01
  -4.370  0.0000E+00  0.8000E+01
  -4.360  0.0000E+00  0.8000E+01
  -4.350  0.0000E+00  0.8000E+01
  -4.340  0.0000E+00  0.8000E+01
  -4.330  0.0000E+00  0.8000E+01
  -4.320  0.0000E+00  0.8000E+01
  -4.310  0.0000E+00  0.8000E+01
  -4.300  0.0000E+00  0.8000E+01
  -4.290  0.0000E+00  0.8000E+01
  -4.280  0.0000E+00  0.8000E+01
  -4.270  0.0000E+00  0.8000E+01
  -4.260  0.0000E+00  0.8000E+01
  -4.250  0.0000E+00  0.8000E+01
  -4.240  0.0000E+00  0.8000E+01
  -4.230  0.0000E+00  0.8000E+01
  -4.220  0.0000E+00  0.8000E+01
  -4.210  0.0000E+00  0.8000E+01
  -4.200  0.0000E+00  0.8000E+01
  -4.190  0.0000E+00  0.8000E+01
  -4.180  0.0000E+00  0.8000E+01
  -4.170  0.0000E+00  0.8000E+01
  -4.160  0.0000E+00  0.8000E+01
  -4.150  0.0000E+00  0.8000E+01
  -4.140  0.0000E+00  0.8000E+01
  -4.130  0.0000E+00  0.8000E+01
  -4.120  0.0000E+00  0.8000E+01
  -4.110  0.0000E+00  0.8000E+01
  -4.100  0.0000E+00  0.8000E+01
  -4.090  0.0000E+00  0.8000E+01
  -4.080  0.0000E+00  0.8000E+01
  -4.070  0.0000E+00  0.8000E+01
  -4.060  0.0000E+00  0.8000E+01
  -4.050  0.0000E+00  0.8000E+01
  -4.040  0.0000E+00  0.8000E+01
  -4.030  0.0000E+00  0.8000E+01
  -4.020  0.0000E+00  0.8000E+01
  -4.010  0.0000E+00  0.8000E+01
  -4.000  0.0000E+00  0.8000E+01
  -3.990  0.0000E+00  0.8000E+01
  -3.980  0.0000E+00  0.8000E+01
  -3.970  0.0000E+00  0.8000E+01
  -3.960  0.0000E+00  0.8000E+01
  -3.950  0.0000E+00  0.8000E+01
  -3.940  0.0000E+00  0.8000E+01
  -3.930  0.0000E+00  0.8000E+01
  -3.920  0.0000E+00  0.8000E+01
  -3.910  0.0000E+00  0.8000E+01
  -3.900  0.0000E+00  0.8000E+01
  -3.890  0.0000E+00  0.8000E+01
  -3.880  0.0000E+00  0.8000E+01
  -3.870  0.0000E+00  0.8000E+01
  -3.860  0.0000E+00  0.8000E+01
  -3.850  0.0000E+00  0.8000E+01
  -3.840  0.0000E+00  0.8000E+01
  -3.830  0.0000E+00  0.8000E+01
  -3.820  0.0000E+00  0.8000E+01
  -3.810  0.0000E+00  0.8000E+01
  -3.800  0.0000E+00  0.8000E+01
  -3.790  0.0000E+00  0.8000E+01
  -3.780  0.0000E+00  0.8000E+01
  -3.770  0.0000E+00  0.8000E+01
  -3.760  0.0000E+00  0.8000E+01
  -3.750  0.0000E+00  0.8000E+01
  -3.740  0.0000E+00  0.8000E+01
  -3.730  0.0000E+00  0.8000E+01
  -3.720  0.0000E+00  0.8000E+01
  -3.710  0.0000E+00  0.8000E+01
  -3.700  0.0000E+00  0.8000E+01
  -3.690  0.0000E+00  0.8000E+01
  -3.680  0.0000E+00  0.8000E+01
  -3.670  0.0000E+00  0.8000E+01
  -3.660  0.0000E+00  0.8000E+01
  -3.650  0.0000E+00  0.8000E+01
  -3.640  0.0000E+00  0.8000E+01
  -3.630  0.0000E+00  0.8000E+01
  -3.620  0.0000E+00  0.8000E+01
  -3.610  0.0000E+00  0.8000E+01
  -3.600  0.0000E+00  0.8000E+01
  -3.590  0.0000E+00  0.8000E+01
  -3.580  0.0000E+00  0.8000E+01
  -3.570  0.0000E+00  0.8000E+01
  -3.560  0.0000E+00  0.8000E+01
  -3.550  0.0000E+00  0.8000E+01
  -3.540  0.0000E+00  0.8000E+01
  -3.530  0.0000E+00  0.8000E+01
  -3.520  0.0000E+00  0.8000E+01
  -3.510  0.0000E+00  0.8000E+01
  -3.500  0.0000E+00  0.8000E+01
  -3.490  0.0000E+00  0.8000E+01
  -3.480  0.0000E+00  0.8000E+01
  -3.470  0.0000E+00  0.8000E+01
  -3.460  0.0000E+00  0.8000E+01
  -3.450  0.0000E+00  0.8000E+01
  -3.440  0.0000E+00  0.8000E+01
  -3.430  0.0000E+00  0.8000E+01
  -3.420  0.0000E+00  0.8000E+01
  -3.410  0.0000E+00  0.8000E+01
  -3.400  0.0000E+00  0.8000E+01
  -3.390  0.0000E+00  0.8000E+01
  -3.380  0.0000E+00  0.8000E+01
  -3.370  0.0000E+00  0.8000E+01
  -3.360  0.0000E+00  0.8000E+01
  -3.350  0.0000E+00  0.8000E+01
  -3.340  0.0000E+00  0.8000E+01
  -3.330  0.0000E+00  0.8000E+01
  -3.320  0.0000E+00  0.8000E+01
  -3.310  0.0000E+00  0.8000E+01
  -3.300  0.0000E+00  0.8000E+01
  -3.290  0.0000E+00  0.8000E+01
  -3.280  0.0000E+00  0.8000E+01
  -3.270  0.0000E+00  0.8000E+01
  -3.260  0.0000E+00  0.8000E+01
  -3.250  0.0000E+00  0.8000E+01
  -3.240  0.0000E+00  0.8000E+01
  -3.230  0.0000E+00  0.8000E+01
  -3.220  0.0000E+00  0.8000E+01
  -3.210  0.0000E+00  0.8000E+01
  -3.200  0.0000E+00  0.8000E+01
  -3.190  0.0000E+00  0.8000E+01
  -3.180  0.0000E+00  0.8000E+01
  -3.170  0.0000E+00  0.8000E+01
  -3.160  0.0000E+00  0.8000E+01
  -3.150  0.0000E+00  0.8000E+01
  -3.140  0.0000E+00  0.8000E+01
  -3.130  0.0000E+00  0.8000E+01
  -3.120  0.0000E+00  0.8000E+01
  -3.110  0.0000E+00  0.8000E+01
  -3.100  0.0000E+00  0.8000E+01
  -3.090  0.0000E+00  0.8000E+01
  -3.080  0.0000E+00  0.8000E+01
  -3.070  0.0000E+00  0.8000E+01
  -3.060  0.0000E+00  0.8000E+01
  -3.050  0.0000E+00  0.8000E+01
  -3.040  0.0000E+00  0.8000E+01
  -3.030  0.0000E+00  0.8000E+01
  -3.020  0.0000E+00  0.8000E+01
  -3.010  0.0000E+00  0.8000E+01
  -3.000  0.0000E+00  0.8000E+01
  -2.990  0.0000E+00  0.8000E+01
  -2.980  0.0000E+00  0.8000E+01
  -2.970  0.0000E+00  0.8000E+01
  -2.960  0.0000E+00  0.8000E+01
  -2.950  0.0000E+00  0.8000E+01
  -2.940  0.0000E+00  0.8000E+01
  -2.930  0.0000E+00  0.8000E+01
  -2.920  0.0000E+00  0.8000E+01
  -2.910  0.0000E+00  0.8000E+01
  -2.900  0.0000E+00  0.8000E+01
  -2.890  0.0000E+00  0.8000E+01
  -2.880  0.0000E+00  0.8000E+01
  -2.870  0.0000E+00  0.8000E+01
  -2.860  0.0000E+00  0.8000E+01
  -2.850  0.0000E+00  0.8000E+01
  -2.840  0.0000E+00  0.8000E+01
  -2.830  0.0000E+00  0.8000E+01
  -2.820  0.0000E+00  0.8000E+01
  -2.810  0.0000E+00  0.8000E+01
  -2.800  0.0000E+00  0.8000E+01
  -2.790  0.0000E+00  0.8000E+01
  -2.780  0.0000E+00  0.8000E+01
  -2.770  0.0000E+00  0.8000E+01
  -2.760  0.0000E+00  0.8000E+01
  -2.750  0.0000E+00  0.8000E+01
  -2.740  0.0000E+00  0.8000E+01
  -2.730  0.0000E+00  0.8000E+01
  -2.720  0.0000E+00  0.8000E+01
  -2.710  0.0000E+00  0.8000E+01
  -2.700  0.0000E+00  0.8000E+01
  -2.690  0.0000E+00  0.8000E+01
  -2.680  0.0000E+00  0.8000E+01
  -2.670  0.0000E+00  0.8000E+01
  -2.660  0.0000E+00  0.8000E+01
  -2.650  0.0000E+00  0.8000E+01
  -2.640  0.0000E+00  0.8000E+01
  -2.630  0.0000E+00  0.8000E+01
  -2.620  0.0000E+00  0.8000E+01
  -2.610  0.0000E+00  0.8000E+01
  -2.600  0.0000E+00  0.8000E+01
  -2.590  0.0000E+00  0.8000E+01
  -2.580  0.0000E+00  0.8000E+01
  -2.570  0.0000E+00  0.8000E+01
  -2.560  0.0000E+00  0.8000E+01
  -2.550  0.0000E+00  0.8000E+01
  -2.540  0.0000E+00  0.8000E+01
  -2.530  0.0000E+00  0.8000E+01
  -2.520  0.0000E+00  0.8000E+01
  -2.510  0.0000E+00  0.8000E+01
  -2.500  0.0000E+00  0.8000E+01
  -2.490  0.0000E+00  0.8000E+01
  -2.480  0.0000E+00  0.8000E+01
  -2.470  0.0000E+00  0.8000E+01
  -2.460  0.0000E+00  0.8000E+01
  -2.450  0.0000E+00  0.8000E+01
  -2.440  0.0000E+00  0.8000E+01
  -2.430  0.0000E+00  0.8000E+01
  -2.420  0.0000E+00  0.8000E+01
  -2.410  0.0000E+00  0.8000E+01
  -2.400  0.0000E+00  0.8000E+01
  -2.390  0.0000E+00  0.8000E+01
  -2.380  0.0000E+00  0.8000E+01
  -2.370  0.0000E+00  0.8000E+01
  -2.360  0.0000E+00  0.8000E+01
  -2.350  0.0000E+00  0.8000E+01
  -2.340  0.0000E+00  0.8000E+01
  -2.330  0.0000E+00  0.8000E+01
  -2.320  0.0000E+00  0.8000E+01
  -2.310  0.0000E+00  0.8000E+01
  -2.300  0.0000E+00  0.8000E+01
  -2.290  0.0000E+00  0.8000E+01
  -2.280  0.0000E+00  0.8000E+01
  -2.270  0.0000E+00  0.8000E+01
  -2.260  0.0000E+00  0.8000E+01
  -2.250  0.0000E+00  0.8000E+01
  -2.240  0.0000E+00  0.8000E+01
  -2.230  0.0000E+00  0.8000E+01
  -2.220  0.0000E+00  0.8000E+01
  -2.210  0.0000E+00  0.8000E+01
  -2.200  0.1021E-01  0.8000E+01
  -2.190  0.1440E+00  0.8001E+01
  -2.180  0.2975E+00  0.8003E+01
  -2.170  0.4517E+00  0.8007E+01
  -2.160  0.4834E+00  0.8012E+01
  -2.150  0.4750E+00  0.8017E+01
  -2.140  0.4755E+00  0.8022E+01
  -2.130  0.5159E+00  0.8026E+01
  -2.120  0.1186E+01  0.8034E+01
  -2.110  0.2394E+01  0.8053E+01
  -2.100  0.2435E+01  0.8078E+01
  -2.090  0.2697E+01  0.8103E+01
  -2.080  0.2738E+01  0.8130E+01
  -2.070  0.2471E+01  0.8156E+01
  -2.060  0.2561E+01  0.8181E+01
  -2.050  0.2718E+01  0.8207E+01
  -2.040  0.2637E+01  0.8234E+01
  -2.030  0.2581E+01  0.8260E+01
  -2.020  0.2608E+01  0.8286E+01
  -2.010  0.2567E+01  0.8312E+01
  -2.000  0.2635E+01  0.8338E+01
  -1.990  0.2706E+01  0.8364E+01
  -1.980  0.2729E+01  0.8392E+01
  -1.970  0.2682E+01  0.8419E+01
  -1.960  0.2601E+01  0.8445E+01
  -1.950  0.2617E+01  0.8471E+01
  -1.940  0.2680E+01  0.8497E+01
  -1.930  0.2749E+01  0.8525E+01
  -1.920  0.2776E+01  0.8552E+01
  -1.910  0.2757E+01  0.8580E+01
  -1.900  0.2705E+01  0.8607E+01
  -1.890  0.2682E+01  0.8634E+01
  -1.880  0.2715E+01  0.8661E+01
  -1.870  0.2780E+01  0.8688E+01
  -1.860  0.2800E+01  0.8716E+01
  -1.850  0.2778E+01  0.8744E+01
  -1.840  0.2797E+01  0.8772E+01
  -1.830  0.2838E+01  0.8800E+01
  -1.820  0.3498E+01  0.8831E+01
  -1.810  0.4359E+01  0.8870E+01
  -1.800  0.4308E+01  0.8914E+01
  -1.790  0.4677E+01  0.8958E+01
  -1.780  0.4568E+01  0.9004E+01
  -1.770  0.4335E+01  0.9047E+01
  -1.760  0.4452E+01  0.9091E+01
  -1.750  0.4615E+01  0.9136E+01
  -1.740  0.4610E+01  0.9182E+01
  -1.730  0.4578E+01  0.9228E+01
  -1.720  0.4548E+01  0.9274E+01
  -1.710  0.4520E+01  0.9319E+01
  -1.700  0.4600E+01  0.9365E+01
  -1.690  0.4667E+01  0.9411E+01
  -1.680  0.4705E+01  0.9458E+01
  -1.670  0.4662E+01  0.9505E+01
  -1.660  0.4650E+01  0.9551E+01
  -1.650  0.4729E+01  0.9598E+01
  -1.640  0.4800E+01  0.9646E+01
  -1.630  0.4833E+01  0.9694E+01
  -1.620  0.4837E+01  0.9742E+01
  -1.610  0.4896E+01  0.9791E+01
  -1.600  0.4877E+01  0.9840E+01
  -1.590  0.4866E+01  0.9889E+01
  -1.580  0.4927E+01  0.9937E+01
  -1.570  0.5015E+01  0.9987E+01
  -1.560  0.5042E+01  0.1004E+02
  -1.550  0.5065E+01  0.1009E+02
  -1.540  0.5135E+01  0.1014E+02
  -1.530  0.5205E+01  0.1019E+02
  -1.520  0.5273E+01  0.1024E+02
  -1.510  0.5290E+01  0.1030E+02
  -1.500  0.5320E+01  0.1035E+02
  -1.490  0.5364E+01  0.1040E+02
  -1.480  0.5439E+01  0.1046E+02
  -1.470  0.5522E+01  0.1051E+02
  -1.460  0.5613E+01  0.1057E+02
  -1.450  0.5707E+01  0.1062E+02
  -1.440  0.5889E+01  0.1068E+02
  -1.430  0.6025E+01  0.1074E+02
  -1.420  0.6082E+01  0.1080E+02
  -1.410  0.6244E+01  0.1086E+02
  -1.400  0.6450E+01  0.1093E+02
  -1.390  0.6794E+01  0.1099E+02
  -1.380  0.7592E+01  0.1107E+02
  -1.370  0.7428E+01  0.1114E+02
  -1.360  0.7049E+01  0.1122E+02
  -1.350  0.6683E+01  0.1129E+02
  -1.340  0.6465E+01  0.1135E+02
  -1.330  0.6257E+01  0.1141E+02
  -1.320  0.6302E+01  0.1148E+02
  -1.310  0.6150E+01  0.1154E+02
  -1.300  0.6066E+01  0.1160E+02
  -1.290  0.6023E+01  0.1166E+02
  -1.280  0.5953E+01  0.1172E+02
  -1.270  0.6183E+01  0.1178E+02
  -1.260  0.5995E+01  0.1184E+02
  -1.250  0.5977E+01  0.1190E+02
  -1.240  0.5970E+01  0.1196E+02
  -1.230  0.5613E+01  0.1202E+02
  -1.220  0.5721E+01  0.1208E+02
  -1.210  0.5826E+01  0.1213E+02
  -1.200  0.5901E+01  0.1219E+02
  -1.190  0.5982E+01  0.1225E+02
  -1.180  0.6140E+01  0.1231E+02
  -1.170  0.6386E+01  0.1237E+02
  -1.160  0.6595E+01  0.1244E+02
  -1.150  0.6821E+01  0.1251E+02
  -1.140  0.7256E+01  0.1258E+02
  -1.130  0.8114E+01  0.1265E+02
  -1.120  0.8241E+01  0.1274E+02
  -1.110  0.9202E+01  0.1282E+02
  -1.100  0.8281E+01  0.1291E+02
  -1.090  0.8095E+01  0.1299E+02
  -1.080  0.7796E+01  0.1307E+02
  -1.070  0.8099E+01  0.1315E+02
  -1.060  0.7582E+01  0.1323E+02
  -1.050  0.6970E+01  0.1330E+02
  -1.040  0.6527E+01  0.1337E+02
  -1.030  0.6042E+01  0.1344E+02
  -1.020  0.5633E+01  0.1349E+02
  -1.010  0.5594E+01  0.1355E+02
  -1.000  0.5158E+01  0.1360E+02
  -0.990  0.4314E+01  0.1365E+02
  -0.980  0.2479E+01  0.1369E+02
  -0.970  0.2154E+01  0.1371E+02
  -0.960  0.1965E+01  0.1373E+02
  -0.950  0.1868E+01  0.1375E+02
  -0.940  0.1611E+01  0.1377E+02
  -0.930  0.1399E+01  0.1378E+02
  -0.920  0.1374E+01  0.1380E+02
  -0.910  0.1348E+01  0.1381E+02
  -0.900  0.1317E+01  0.1382E+02
  -0.890  0.1289E+01  0.1384E+02
  -0.880  0.1275E+01  0.1385E+02
  -0.870  0.1262E+01  0.1386E+02
  -0.860  0.1250E+01  0.1387E+02
  -0.850  0.1240E+01  0.1389E+02
  -0.840  0.1224E+01  0.1390E+02
  -0.830  0.1202E+01  0.1391E+02
  -0.820  0.1180E+01  0.1392E+02
  -0.810  0.1166E+01  0.1393E+02
  -0.800  0.1156E+01  0.1395E+02
  -0.790  0.1145E+01  0.1396E+02
  -0.780  0.1135E+01  0.1397E+02
  -0.770  0.1124E+01  0.1398E+02
  -0.760  0.1113E+01  0.1399E+02
  -0.750  0.1102E+01  0.1400E+02
  -0.740  0.1089E+01  0.1401E+02
  -0.730  0.1077E+01  0.1402E+02
  -0.720  0.1068E+01  0.1404E+02
  -0.710  0.1059E+01  0.1405E+02
  -0.700  0.1050E+01  0.1406E+02
  -0.690  0.1041E+01  0.1407E+02
  -0.680  0.1032E+01  0.1408E+02
  -0.670  0.1023E+01  0.1409E+02
  -0.660  0.1014E+01  0.1410E+02
  -0.650  0.1002E+01  0.1411E+02
  -0.640  0.9921E+00  0.1412E+02
  -0.630  0.9863E+00  0.1413E+02
  -0.620  0.9837E+00  0.1414E+02
  -0.610  0.9793E+00  0.1415E+02
  -0.600  0.9718E+00  0.1416E+02
  -0.590  0.9643E+00  0.1417E+02
  -0.580  0.9567E+00  0.1418E+02
  -0.570  0.9491E+00  0.1419E+02
  -0.560  0.9413E+00  0.1420E+02
  -0.550  0.9320E+00  0.1420E+02
  -0.540  0.9228E+00  0.1421E+02
  -0.530  0.9159E+00  0.1422E+02
  -0.520  0.9114E+00  0.1423E+02
  -0.510  0.9069E+00  0.1424E+02
  -0.500  0.9024E+00  0.1425E+02
  -0.490  0.8991E+00  0.1426E+02
  -0.480  0.8969E+00  0.1427E+02
  -0.470  0.8931E+00  0.1428E+02
  -0.460  0.8868E+00  0.1429E+02
  -0.450  0.8803E+00  0.1430E+02
  -0.440  0.8732E+00  0.1430E+02
  -0.430  0.8653E+00  0.1431E+02
  -0.420  0.8586E+00  0.1432E+02
  -0.410  0.8544E+00  0.1433E+02
  -0.400  0.8503E+00  0.1434E+02
  -0.390  0.8462E+00  0.1435E+02
  -0.380  0.9577E+00  0.1436E+02
  -0.370  0.1049E+01  0.1437E+02
  -0.360  0.1081E+01  0.1438E+02
  -0.350  0.1088E+01  0.1439E+02
  -0.340  0.1102E+01  0.1440E+02
  -0.330  0.1125E+01  0.1441E+02
  -0.320  0.1160E+01  0.1442E+02
  -0.310  0.1128E+01  0.1443E+02
  -0.300  0.1120E+01  0.1444E+02
  -0.290  0.1080E+01  0.1445E+02
  -0.280  0.1089E+01  0.1447E+02
  -0.270  0.1097E+01  0.1448E+02
  -0.260  0.1106E+01  0.1449E+02
  -0.250  0.1115E+01  0.1450E+02
  -0.240  0.1123E+01  0.1451E+02
  -0.230  0.1157E+01  0.1452E+02
  -0.220  0.1230E+01  0.1453E+02
  -0.210  0.1275E+01  0.1455E+02
  -0.200  0.1320E+01  0.1456E+02
  -0.190  0.1409E+01  0.1457E+02
  -0.180  0.1500E+01  0.1459E+02
  -0.170  0.1664E+01  0.1460E+02
  -0.160  0.1856E+01  0.1462E+02
  -0.150  0.1969E+01  0.1464E+02
  -0.140  0.1955E+01  0.1466E+02
  -0.130  0.1993E+01  0.1468E+02
  -0.120  0.2029E+01  0.1470E+02
  -0.110  0.2023E+01  0.1472E+02
  -0.100  0.2007E+01  0.1474E+02
  -0.090  0.1988E+01  0.1476E+02
  -0.080  0.2004E+01  0.1478E+02
  -0.070  0.1997E+01  0.1480E+02
  -0.060  0.2014E+01  0.1482E+02
  -0.050  0.2030E+01  0.1484E+02
  -0.040  0.2051E+01  0.1486E+02
  -0.030  0.2047E+01  0.1488E+02
  -0.020  0.2067E+01  0.1490E+02
  -0.010  0.2249E+01  0.1492E+02
   0.000  0.2396E+01  0.1494E+02
   0.010  0.2373E+01  0.1497E+02
   0.020  0.2431E+01  0.1499E+02
   0.030  0.2478E+01  0.1502E+02
   0.040  0.2574E+01  0.1504E+02
   0.050  0.2630E+01  0.1507E+02
   0.060  0.2692E+01  0.1510E+02
   0.070  0.2763E+01  0.1512E+02
   0.080  0.2756E+01  0.1515E+02
   0.090  0.2775E+01  0.1518E+02
   0.100  0.2795E+01  0.1521E+02
   0.110  0.2826E+01  0.1523E+02
   0.120  0.2816E+01  0.1526E+02
   0.130  0.2824E+01  0.1529E+02
   0.140  0.3008E+01  0.1532E+02
   0.150  0.3277E+01  0.1535E+02
   0.160  0.3822E+01  0.1539E+02
   0.170  0.3993E+01  0.1542E+02
   0.180  0.4150E+01  0.1547E+02
   0.190  0.4085E+01  0.1551E+02
   0.200  0.4185E+01  0.1555E+02
   0.210  0.4269E+01  0.1559E+02
   0.220  0.4721E+01  0.1564E+02
   0.230  0.5014E+01  0.1568E+02
   0.240  0.5370E+01  0.1574E+02
   0.250  0.5573E+01  0.1579E+02
   0.260  0.5675E+01  0.1585E+02
   0.270  0.5787E+01  0.1591E+02
   0.280  0.5826E+01  0.1596E+02
   0.290  0.5886E+01  0.1602E+02
   0.300  0.5997E+01  0.1608E+02
   0.310  0.6118E+01  0.1614E+02
   0.320  0.6281E+01  0.1620E+02
   0.330  0.6323E+01  0.1627E+02
   0.340  0.6513E+01  0.1633E+02
   0.350  0.6733E+01  0.1640E+02
   0.360  0.7093E+01  0.1647E+02
   0.370  0.7413E+01  0.1654E+02
   0.380  0.7679E+01  0.1661E+02
   0.390  0.8024E+01  0.1669E+02
   0.400  0.8144E+01  0.1677E+02
   0.410  0.7982E+01  0.1686E+02
   0.420  0.7553E+01  0.1693E+02
   0.430  0.7095E+01  0.1701E+02
   0.440  0.6545E+01  0.1707E+02
   0.450  0.6199E+01  0.1714E+02
   0.460  0.6229E+01  0.1720E+02
   0.470  0.6667E+01  0.1726E+02
   0.480  0.6953E+01  0.1733E+02
   0.490  0.7330E+01  0.1740E+02
   0.500  0.6782E+01  0.1747E+02
   0.510  0.6440E+01  0.1754E+02
   0.520  0.6304E+01  0.1760E+02
   0.530  0.5219E+01  0.1766E+02
   0.540  0.4756E+01  0.1771E+02
   0.550  0.4322E+01  0.1775E+02
   0.560  0.4013E+01  0.1780E+02
   0.570  0.3870E+01  0.1783E+02
   0.580  0.3838E+01  0.1787E+02
   0.590  0.3809E+01  0.1791E+02
   0.600  0.3792E+01  0.1795E+02
   0.610  0.3804E+01  0.1799E+02
   0.620  0.3829E+01  0.1803E+02
   0.630  0.3847E+01  0.1806E+02
   0.640  0.3866E+01  0.1810E+02
   0.650  0.3883E+01  0.1814E+02
   0.660  0.3906E+01  0.1818E+02
   0.670  0.3930E+01  0.1822E+02
   0.680  0.3972E+01  0.1826E+02
   0.690  0.4071E+01  0.1830E+02
   0.700  0.4187E+01  0.1834E+02
   0.710  0.4307E+01  0.1838E+02
   0.720  0.4446E+01  0.1843E+02
   0.730  0.4654E+01  0.1847E+02
   0.740  0.4481E+01  0.1852E+02
   0.750  0.4514E+01  0.1856E+02
   0.760  0.4316E+01  0.1861E+02
   0.770  0.4172E+01  0.1865E+02
   0.780  0.4013E+01  0.1869E+02
   0.790  0.3866E+01  0.1873E+02
   0.800  0.3589E+01  0.1877E+02
   0.810  0.3415E+01  0.1880E+02
   0.820  0.3351E+01  0.1884E+02
   0.830  0.3310E+01  0.1887E+02
   0.840  0.3272E+01  0.1890E+02
   0.850  0.3223E+01  0.1893E+02
   0.860  0.3220E+01  0.1897E+02
   0.870  0.3260E+01  0.1900E+02
   0.880  0.3367E+01  0.1903E+02
   0.890  0.3303E+01  0.1906E+02
   0.900  0.3280E+01  0.1910E+02
   0.910  0.3312E+01  0.1913E+02
   0.920  0.3376E+01  0.1916E+02
   0.930  0.3517E+01  0.1920E+02
   0.940  0.3799E+01  0.1923E+02
   0.950  0.3866E+01  0.1927E+02
   0.960  0.4056E+01  0.1931E+02
   0.970  0.4275E+01  0.1935E+02
   0.980  0.4618E+01  0.1940E+02
   0.990  0.5091E+01  0.1945E+02
   1.000  0.5719E+01  0.1950E+02
   1.010  0.5825E+01  0.1956E+02
   1.020  0.5797E+01  0.1962E+02
   1.030  0.5836E+01  0.1968E+02
   1.040  0.6244E+01  0.1974E+02
   1.050  0.6285E+01  0.1980E+02
   1.060  0.5514E+01  0.1986E+02
   1.070  0.5120E+01  0.1991E+02
   1.080  0.5227E+01  0.1996E+02
   1.090  0.4765E+01  0.2001E+02
   1.100  0.4147E+01  0.2006E+02
   1.110  0.3820E+01  0.2010E+02
   1.120  0.4042E+01  0.2014E+02
   1.130  0.4211E+01  0.2018E+02
   1.140  0.4479E+01  0.2022E+02
   1.150  0.4606E+01  0.2027E+02
   1.160  0.4771E+01  0.2031E+02
   1.170  0.5077E+01  0.2036E+02
   1.180  0.5288E+01  0.2041E+02
   1.190  0.5372E+01  0.2047E+02
   1.200  0.5540E+01  0.2052E+02
   1.210  0.5728E+01  0.2058E+02
   1.220  0.5744E+01  0.2064E+02
   1.230  0.5749E+01  0.2069E+02
   1.240  0.5705E+01  0.2075E+02
   1.250  0.5652E+01  0.2081E+02
   1.260  0.5584E+01  0.2086E+02
   1.270  0.5476E+01  0.2092E+02
   1.280  0.5449E+01  0.2097E+02
   1.290  0.5445E+01  0.2103E+02
   1.300  0.5464E+01  0.2108E+02
   1.310  0.5502E+01  0.2114E+02
   1.320  0.5534E+01  0.2119E+02
   1.330  0.5598E+01  0.2125E+02
   1.340  0.5682E+01  0.2131E+02
   1.350  0.5681E+01  0.2136E+02
   1.360  0.5689E+01  0.2142E+02
   1.370  0.5751E+01  0.2148E+02
   1.380  0.5837E+01  0.2153E+02
   1.390  0.5898E+01  0.2159E+02
   1.400  0.5976E+01  0.2165E+02
   1.410  0.6139E+01  0.2171E+02
   1.420  0.6339E+01  0.2178E+02
   1.430  0.6412E+01  0.2184E+02
   1.440  0.6453E+01  0.2190E+02
   1.450  0.6422E+01  0.2197E+02
   1.460  0.6506E+01  0.2203E+02
   1.470  0.6593E+01  0.2210E+02
   1.480  0.6728E+01  0.2216E+02
   1.490  0.6767E+01  0.2223E+02
   1.500  0.6666E+01  0.2230E+02
   1.510  0.6457E+01  0.2236E+02
   1.520  0.6237E+01  0.2243E+02
   1.530  0.6005E+01  0.2249E+02
   1.540  0.5836E+01  0.2255E+02
   1.550  0.5669E+01  0.2261E+02
   1.560  0.5518E+01  0.2266E+02
   1.570  0.5528E+01  0.2272E+02
   1.580  0.5583E+01  0.2277E+02
   1.590  0.5537E+01  0.2283E+02
   1.600  0.5508E+01  0.2288E+02
   1.610  0.5517E+01  0.2294E+02
   1.620  0.5584E+01  0.2299E+02
   1.630  0.5502E+01  0.2305E+02
   1.640  0.5595E+01  0.2310E+02
   1.650  0.5558E+01  0.2316E+02
   1.660  0.5628E+01  0.2322E+02
   1.670  0.5387E+01  0.2327E+02
   1.680  0.5011E+01  0.2333E+02
   1.690  0.5102E+01  0.2338E+02
   1.700  0.5189E+01  0.2343E+02
   1.710  0.5206E+01  0.2348E+02
   1.720  0.5159E+01  0.2353E+02
   1.730  0.5188E+01  0.2358E+02
   1.740  0.5262E+01  0.2364E+02
   1.750  0.5338E+01  0.2369E+02
   1.760  0.5463E+01  0.2374E+02
   1.770  0.5573E+01  0.2380E+02
   1.780  0.5646E+01  0.2385E+02
   1.790  0.5780E+01  0.2391E+02
   1.800  0.5979E+01  0.2397E+02
   1.810  0.6230E+01  0.2403E+02
   1.820  0.6523E+01  0.2409E+02
   1.830  0.6887E+01  0.2416E+02
   1.840  0.7112E+01  0.2423E+02
   1.850  0.6921E+01  0.2430E+02
   1.860  0.6790E+01  0.2437E+02
   1.870  0.5445E+01  0.2443E+02
   1.880  0.5592E+01  0.2448E+02
   1.890  0.5997E+01  0.2454E+02
   1.900  0.7054E+01  0.2460E+02
   1.910  0.6607E+01  0.2467E+02
   1.920  0.5640E+01  0.2473E+02
   1.930  0.5108E+01  0.2479E+02
   1.940  0.4716E+01  0.2483E+02
   1.950  0.4880E+01  0.2488E+02
   1.960  0.5034E+01  0.2493E+02
   1.970  0.5371E+01  0.2498E+02
   1.980  0.5727E+01  0.2504E+02
   1.990  0.5958E+01  0.2510E+02
   2.000  0.6164E+01  0.2516E+02
   2.010  0.6106E+01  0.2522E+02
   2.020  0.6085E+01  0.2528E+02
   2.030  0.6193E+01  0.2534E+02
   2.040  0.6851E+01  0.2541E+02
   2.050  0.6912E+01  0.2547E+02
   2.060  0.6774E+01  0.2554E+02
   2.070  0.6303E+01  0.2561E+02
   2.080  0.6002E+01  0.2567E+02
   2.090  0.5881E+01  0.2573E+02
   2.100  0.5777E+01  0.2579E+02
   2.110  0.5708E+01  0.2584E+02
   2.120  0.5693E+01  0.2590E+02
   2.130  0.5606E+01  0.2596E+02
   2.140  0.5549E+01  0.2601E+02
   2.150  0.5530E+01  0.2607E+02
   2.160  0.5444E+01  0.2612E+02
   2.170  0.5393E+01  0.2618E+02
   2.180  0.5385E+01  0.2623E+02
   2.190  0.5153E+01  0.2628E+02
   2.200  0.3092E+01  0.2632E+02
   2.210  0.3093E+01  0.2635E+02
   2.220  0.3094E+01  0.2638E+02
   2.230  0.3099E+01  0.2641E+02
   2.240  0.3110E+01  0.2645E+02
   2.250  0.3126E+01  0.2648E+02
   2.260  0.3144E+01  0.2651E+02
   2.270  0.3169E+01  0.2654E+02
   2.280  0.3186E+01  0.2657E+02
   2.290  0.3201E+01  0.2660E+02
   2.300  0.3215E+01  0.2664E+02
   2.310  0.3228E+01  0.2667E+02
   2.320  0.3242E+01  0.2670E+02
   2.330  0.3257E+01  0.2673E+02
   2.340  0.3272E+01  0.2677E+02
   2.350  0.3294E+01  0.2680E+02
   2.360  0.3321E+01  0.2683E+02
   2.370  0.3350E+01  0.2686E+02
   2.380  0.3375E+01  0.2690E+02
   2.390  0.3397E+01  0.2693E+02
   2.400  0.3416E+01  0.2697E+02
   2.410  0.3437E+01  0.2700E+02
   2.420  0.3458E+01  0.2703E+02
   2.430  0.3489E+01  0.2707E+02
   2.440  0.3531E+01  0.2710E+02
   2.450  0.3564E+01  0.2714E+02
   2.460  0.3595E+01  0.2718E+02
   2.470  0.3627E+01  0.2721E+02
   2.480  0.3665E+01  0.2725E+02
   2.490  0.3704E+01  0.2729E+02
   2.500  0.3751E+01  0.2732E+02
   2.510  0.3807E+01  0.2736E+02
   2.520  0.3856E+01  0.2740E+02
   2.530  0.3900E+01  0.2744E+02
   2.540  0.3943E+01  0.2748E+02
   2.550  0.3992E+01  0.2752E+02
   2.560  0.4075E+01  0.2756E+02
   2.570  0.4180E+01  0.2760E+02
   2.580  0.4269E+01  0.2764E+02
   2.590  0.4360E+01  0.2768E+02
   2.600  0.4450E+01  0.2773E+02
   2.610  0.4540E+01  0.2777E+02
   2.620  0.4713E+01  0.2782E+02
   2.630  0.5026E+01  0.2787E+02
   2.640  0.5203E+01  0.2792E+02
   2.650  0.5443E+01  0.2797E+02
   2.660  0.5643E+01  0.2803E+02
   2.670  0.5654E+01  0.2808E+02
   2.680  0.5448E+01  0.2814E+02
   2.690  0.5413E+01  0.2819E+02
   2.700  0.5393E+01  0.2825E+02
   2.710  0.5619E+01  0.2830E+02
   2.720  0.5641E+01  0.2836E+02
   2.730  0.5496E+01  0.2841E+02
   2.740  0.5188E+01  0.2847E+02
   2.750  0.5045E+01  0.2852E+02
   2.760  0.5098E+01  0.2857E+02
   2.770  0.5007E+01  0.2862E+02
   2.780  0.4771E+01  0.2867E+02
   2.790  0.4725E+01  0.2872E+02
   2.800  0.4853E+01  0.2876E+02
   2.810  0.4664E+01  0.2881E+02
   2.820  0.4430E+01  0.2886E+02
   2.830  0.4404E+01  0.2890E+02
   2.840  0.4578E+01  0.2895E+02
   2.850  0.4737E+01  0.2899E+02
   2.860  0.5450E+01  0.2904E+02
   2.870  0.3405E+01  0.2908E+02
   2.880  0.3371E+01  0.2912E+02
   2.890  0.3362E+01  0.2915E+02
   2.900  0.3386E+01  0.2919E+02
   2.910  0.3524E+01  0.2922E+02
   2.920  0.3293E+01  0.2925E+02
   2.930  0.3202E+01  0.2929E+02
   2.940  0.3166E+01  0.2932E+02
   2.950  0.3147E+01  0.2935E+02
   2.960  0.3173E+01  0.2938E+02
   2.970  0.3229E+01  0.2941E+02
   2.980  0.3548E+01  0.2945E+02
   2.990  0.3863E+01  0.2949E+02
   3.000  0.3830E+01  0.2952E+02
   3.010  0.3878E+01  0.2956E+02
   3.020  0.4257E+01  0.2960E+02
   3.030  0.4600E+01  0.2965E+02
   3.040  0.4636E+01  0.2969E+02
   3.050  0.4785E+01  0.2974E+02
   3.060  0.4801E+01  0.2979E+02
   3.070  0.5274E+01  0.2984E+02
   3.080  0.6300E+01  0.2990E+02
   3.090  0.4938E+01  0.2995E+02
   3.100  0.4947E+01  0.3000E+02
   3.110  0.4967E+01  0.3005E+02
   3.120  0.5186E+01  0.3010E+02
   3.130  0.5572E+01  0.3016E+02
   3.140  0.5778E+01  0.3021E+02
   3.150  0.5886E+01  0.3027E+02
   3.160  0.6067E+01  0.3033E+02
   3.170  0.6254E+01  0.3039E+02
   3.180  0.6892E+01  0.3046E+02
   3.190  0.7183E+01  0.3053E+02
   3.200  0.6770E+01  0.3060E+02
   3.210  0.6335E+01  0.3066E+02
   3.220  0.6276E+01  0.3073E+02
   3.230  0.6082E+01  0.3079E+02
   3.240  0.6026E+01  0.3085E+02
   3.250  0.5893E+01  0.3091E+02
   3.260  0.5676E+01  0.3097E+02
   3.270  0.5649E+01  0.3102E+02
   3.280  0.5515E+01  0.3108E+02
   3.290  0.5442E+01  0.3113E+02
   3.300  0.5541E+01  0.3119E+02
   3.310  0.5578E+01  0.3125E+02
   3.320  0.5540E+01  0.3130E+02
   3.330  0.6887E+01  0.3136E+02
   3.340  0.7306E+01  0.3143E+02
   3.350  0.7635E+01  0.3151E+02
   3.360  0.8121E+01  0.3159E+02
   3.370  0.8480E+01  0.3167E+02
   3.380  0.8871E+01  0.3176E+02
   3.390  0.9117E+01  0.3185E+02
   3.400  0.9248E+01  0.3194E+02
   3.410  0.8978E+01  0.3203E+02
   3.420  0.8806E+01  0.3212E+02
   3.430  0.8589E+01  0.3221E+02
   3.440  0.8462E+01  0.3229E+02
   3.450  0.8731E+01  0.3238E+02
   3.460  0.8968E+01  0.3247E+02
   3.470  0.9478E+01  0.3256E+02
   3.480  0.1024E+02  0.3266E+02
   3.490  0.1157E+02  0.3277E+02
   3.500  0.1340E+02  0.3289E+02
   3.510  0.1313E+02  0.3302E+02
   3.520  0.1225E+02  0.3315E+02
   3.530  0.1228E+02  0.3328E+02
   3.540  0.1258E+02  0.3340E+02
   3.550  0.1248E+02  0.3353E+02
   3.560  0.1176E+02  0.3365E+02
   3.570  0.1113E+02  0.3376E+02
   3.580  0.1092E+02  0.3387E+02
   3.590  0.1077E+02  0.3398E+02
   3.600  0.1082E+02  0.3409E+02
   3.610  0.1121E+02  0.3420E+02
   3.620  0.1203E+02  0.3432E+02
   3.630  0.1181E+02  0.3444E+02
   3.640  0.1157E+02  0.3455E+02
   3.650  0.1111E+02  0.3467E+02
   3.660  0.1002E+02  0.3478E+02
   3.670  0.7231E+01  0.3486E+02
   3.680  0.6531E+01  0.3493E+02
   3.690  0.6244E+01  0.3500E+02
   3.700  0.5947E+01  0.3506E+02
   3.710  0.4082E+01  0.3511E+02
   3.720  0.3030E+01  0.3514E+02
   3.730  0.2109E+01  0.3517E+02
   3.740  0.2061E+01  0.3519E+02
   3.750  0.2044E+01  0.3521E+02
   3.760  0.2033E+01  0.3523E+02
   3.770  0.2004E+01  0.3525E+02
   3.780  0.2009E+01  0.3527E+02
   3.790  0.2026E+01  0.3529E+02
   3.800  0.2031E+01  0.3531E+02
   3.810  0.2009E+01  0.3533E+02
   3.820  0.2008E+01  0.3535E+02
   3.830  0.2008E+01  0.3537E+02
   3.840  0.1987E+01  0.3539E+02
   3.850  0.1965E+01  0.3541E+02
   3.860  0.1918E+01  0.3543E+02
   3.870  0.1950E+01  0.3545E+02
   3.880  0.1940E+01  0.3547E+02
   3.890  0.1899E+01  0.3549E+02
   3.900  0.1883E+01  0.3551E+02
   3.910  0.1918E+01  0.3553E+02
   3.920  0.1914E+01  0.3555E+02
   3.930  0.1884E+01  0.3556E+02
   3.940  0.1879E+01  0.3558E+02
   3.950  0.1935E+01  0.3560E+02
   3.960  0.1921E+01  0.3562E+02
   3.970  0.1864E+01  0.3564E+02
   3.980  0.1880E+01  0.3566E+02
   3.990  0.1884E+01  0.3568E+02
   4.000  0.1838E+01  0.3570E+02
   4.010  0.1841E+01  0.3571E+02
   4.020  0.1831E+01  0.3573E+02
   4.030  0.1787E+01  0.3575E+02
   4.040  0.1770E+01  0.3577E+02
   4.050  0.1848E+01  0.3579E+02
   4.060  0.1841E+01  0.3581E+02
   4.070  0.1842E+01  0.3582E+02
   4.080  0.1814E+01  0.3584E+02
   4.090  0.1788E+01  0.3586E+02
   4.100  0.1824E+01  0.3588E+02
   4.110  0.1806E+01  0.3590E+02
   4.120  0.1648E+01  0.3591E+02
   4.130  0.1798E+01  0.3593E+02
   4.140  0.1547E+01  0.3595E+02
   4.150  0.1464E+01  0.3596E+02
   4.160  0.1188E+01  0.3598E+02
   4.170  0.8228E+00  0.3599E+02
   4.180  0.5923E+00  0.3599E+02
   4.190  0.2115E+00  0.3600E+02
   4.200  0.0000E+00  0.3600E+02
   4.210  0.0000E+00  0.3600E+02
   4.220  0.0000E+00  0.3600E+02
   4.230  0.0000E+00  0.3600E+02
   4.240  0.0000E+00  0.3600E+02
   4.250  0.0000E+00  0.3600E+02
   4.260  0.0000E+00  0.3600E+02
   4.270  0.0000E+00  0.3600E+02
   4.280  0.0000E+00  0.3600E+02
   4.290  0.0000E+00  0.3600E+02
   4.300  0.0000E+00  0.3600E+02
   4.310  0.0000E+00  0.3600E+02
   4.320  0.0000E+00  0.3600E+02
   4.330  0.0000E+00  0.3600E+02
   4.340  0.0000E+00  0.3600E+02
   4.350  0.0000E+00  0.3600E+02
   4.360  0.0000E+00  0.3600E+02
   4.370  0.0000E+00  0.3600E+02
   4.380  0.0000E+00  0.3600E+02
   4.390  0.0000E+00  0.3600E+02
   4.400  0.0000E+00  0.3600E+02
   4.410  0.0000E+00  0.3600E+02
   4.420  0.0000E+00  0.3600E+02
   4.430  0.0000E+00  0.3600E+02
   4.440  0.0000E+00  0.3600E+02
   4.450  0.0000E+00  0.3600E+02
   4.460  0.0000E+00  0.3600E+02
   4.470  0.0000E+00  0.3600E+02
   4.480  0.0000E+00  0.3600E+02
   4.490  0.0000E+00  0.3600E+02
   4.500  0.0000E+00  0.3600E+02
   4.510  0.0000E+00  0.3600E+02
   4.520  0.0000E+00  0.3600E+02
   4.530  0.0000E+00  0.3600E+02
   4.540  0.0000E+00  0.3600E+02
   4.550  0.0000E+00  0.3600E+02
   4.560  0.0000E+00  0.3600E+02
   4.570  0.0000E+00  0.3600E+02
   4.580  0.0000E+00  0.3600E+02
   4.590  0.0000E+00  0.3600E+02
   4.600  0.0000E+00  0.3600E+02
   4.610  0.0000E+00  0.3600E+02
   4.620  0.0000E+00  0.3600E+02
   4.630  0.0000E+00  0.3600E+02
   4.640  0.0000E+00  0.3600E+02
   4.650  0.0000E+00  0.3600E+02
   4.660  0.0000E+00  0.3600E+02
   4.670  0.0000E+00  0.3600E+02
   4.680  0.0000E+00  0.3600E+02
   4.690  0.0000E+00  0.3600E+02
   4.700  0.0000E+00  0.3600E+02
   4.710  0.0000E+00  0.3600E+02
   4.720  0.0000E+00  0.3600E+02
   4.730  0.0000E+00  0.3600E+02
   4.740  0.0000E+00  0.3600E+02
   4.750  0.0000E+00  0.3600E+02
   4.760  0.0000E+00  0.3600E+02
   4.770  0.0000E+00  0.3600E+02
   4.780  0.0000E+00  0.3600E+02
   4.790  0.0000E+00  0.3600E+02
   4.800  0.0000E+00  0.3600E+02
   4.810  0.0000E+00  0.3600E+02
   4.820  0.0000E+00  0.3600E+02
   4.830  0.0000E+00  0.3600E+02
   4.840  0.0000E+00  0.3600E+02
   4.850  0.0000E+00  0.3600E+02
   4.860  0.0000E+00  0.3600E+02
   4.870  0.0000E+00  0.3600E+02
   4.880  0.0000E+00  0.3600E+02
   4.890  0.0000E+00  0.3600E+02
   4.900  0.0000E+00  0.3600E+02
   4.910  0.0000E+00  0.3600E+02
   4.920  0.0000E+00  0.3600E+02
   4.930  0.0000E+00  0.3600E+02
   4.940  0.0000E+00  0.3600E+02
   4.950  0.0000E+00  0.3600E+02
   4.960  0.0000E+00  0.3600E+02
   4.970  0.0000E+00  0.3600E+02
   4.980  0.0000E+00  0.3600E+02
   4.990  0.0000E+00  0.3600E+02
   5.000  0.0000E+00  0.3600E+02
   5.010  0.0000E+00  0.3600E+02
   5.020  0.0000E+00  0.3600E+02
   5.030  0.0000E+00  0.3600E+02
   5.040  0.0000E+00  0.3600E+02
   5.050  0.0000E+00  0.3600E+02
   5.060  0.0000E+00  0.3600E+02
   5.070  0.0000E+00  0.3600E+02
   5.080  0.0000E+00  0.3600E+02
   5.090  0.0000E+00  0.3600E+02
   5.100  0.0000E+00  0.3600E+02
   5.110  0.0000E+00  0.3600E+02
   5.120  0.0000E+00  0.3600E+02
   5.130  0.0000E+00  0.3600E+02
   5.140  0.0000E+00  0.3600E+02
   5.150  0.0000E+00  0.3600E+02
   5.160  0.0000E+00  0.3600E+02
   5.170  0.0000E+00  0.3600E+02
   5.180  0.0000E+00  0.3600E+02
   5.190  0.0000E+00  0.3600E+02
   5.200  0.0000E+00  0.3600E+02
   5.210  0.0000E+00  0.3600E+02
   5.220  0.0000E+00  0.3600E+02
   5.230  0.0000E+00  0.3600E+02
   5.240  0.0000E+00  0.3600E+02
   5.250  0.0000E+00  0.3600E+02
   5.260  0.0000E+00  0.3600E+02
   5.270  0.0000E+00  0.3600E+02
   5.280  0.0000E+00  0.3600E+02
   5.290  0.0000E+00  0.3600E+02
   5.300  0.0000E+00  0.3600E+02
   5.310  0.0000E+00  0.3600E+02
   5.320  0.0000E+00  0.3600E+02
   5.330  0.0000E+00  0.3600E+02
   5.340  0.0000E+00  0.3600E+02
   5.350  0.0000E+00  0.3600E+02
   5.360  0.0000E+00  0.3600E+02
   5.370  0.0000E+00  0.3600E+02
   5.380  0.0000E+00  0.3600E+02
   5.390  0.0000E+00  0.3600E+02
   5.400  0.0000E+00  0.3600E+02
   5.410  0.0000E+00  0.3600E+02
   5.420  0.0000E+00  0.3600E+02
   5.430  0.0000E+00  0.3600E+02
   5.440  0.0000E+00  0.3600E+02
   5.450  0.0000E+00  0.3600E+02
   5.460  0.0000E+00  0.3600E+02
   5.470  0.0000E+00  0.3600E+02
   5.480  0.0000E+00  0.3600E+02
   5.490  0.0000E+00  0.3600E+02
   5.500  0.0000E+00  0.3600E+02
   5.510  0.0000E+00  0.3600E+02
   5.520  0.0000E+00  0.3600E+02
   5.530  0.0000E+00  0.3600E+02
   5.540  0.0000E+00  0.3600E+02
   5.550  0.0000E+00  0.3600E+02
   5.560  0.0000E+00  0.3600E+02
   5.570  0.0000E+00  0.3600E+02
   5.580  0.0000E+00  0.3600E+02
   5.590  0.0000E+00  0.3600E+02
   5.600  0.0000E+00  0.3600E+02
   5.610  0.0000E+00  0.3600E+02
   5.620  0.0000E+00  0.3600E+02
   5.630  0.1063E+00  0.3600E+02
   5.640  0.2467E+00  0.3600E+02
   5.650  0.2657E+00  0.3600E+02
   5.660  0.3097E+00  0.3601E+02
   5.670  0.4409E+00  0.3601E+02
   5.680  0.5206E+00  0.3602E+02
   5.690  0.5709E+00  0.3602E+02
   5.700  0.6297E+00  0.3603E+02
   5.710  0.5819E+00  0.3603E+02
   5.720  0.5949E+00  0.3604E+02
   5.730  0.6325E+00  0.3605E+02
   5.740  0.6139E+00  0.3605E+02
   5.750  0.6137E+00  0.3606E+02
   5.760  0.6605E+00  0.3606E+02
   5.770  0.6711E+00  0.3607E+02
   5.780  0.6461E+00  0.3608E+02
   5.790  0.6637E+00  0.3608E+02
   5.800  0.6947E+00  0.3609E+02
   5.810  0.6993E+00  0.3610E+02
   5.820  0.7082E+00  0.3611E+02
   5.830  0.7220E+00  0.3611E+02
   5.840  0.7638E+00  0.3612E+02
   5.850  0.9711E+00  0.3613E+02
   5.860  0.1158E+01  0.3614E+02
   5.870  0.1330E+01  0.3615E+02
   5.880  0.1751E+01  0.3617E+02
   5.890  0.1753E+01  0.3618E+02
   5.900  0.1846E+01  0.3620E+02
   5.910  0.1800E+01  0.3622E+02
   5.920  0.1890E+01  0.3624E+02
   5.930  0.1959E+01  0.3626E+02
   5.940  0.1940E+01  0.3628E+02
   5.950  0.1997E+01  0.3630E+02
   5.960  0.2402E+01  0.3632E+02
   5.970  0.2635E+01  0.3634E+02
   5.980  0.2933E+01  0.3637E+02
   5.990  0.3083E+01  0.3640E+02
   6.000  0.3334E+01  0.3643E+02
   6.010  0.3478E+01  0.3647E+02
   6.020  0.3770E+01  0.3650E+02
   6.030  0.4168E+01  0.3654E+02
   6.040  0.4553E+01  0.3659E+02
   6.050  0.4317E+01  0.3663E+02
   6.060  0.4063E+01  0.3667E+02
   6.070  0.3948E+01  0.3671E+02
   6.080  0.4177E+01  0.3676E+02
   6.090  0.4433E+01  0.3680E+02
   6.100  0.4160E+01  0.3684E+02
   6.110  0.3805E+01  0.3688E+02
   6.120  0.3332E+01  0.3692E+02
   6.130  0.3100E+01  0.3695E+02
   6.140  0.2930E+01  0.3698E+02
   6.150  0.2800E+01  0.3701E+02
   6.160  0.2681E+01  0.3703E+02
   6.170  0.2560E+01  0.3706E+02
   6.180  0.2485E+01  0.3709E+02
   6.190  0.2407E+01  0.3711E+02
   6.200  0.2326E+01  0.3713E+02
   6.210  0.2238E+01  0.3716E+02
   6.220  0.2163E+01  0.3718E+02
   6.230  0.2106E+01  0.3720E+02
   6.240  0.2059E+01  0.3722E+02
   6.250  0.2011E+01  0.3724E+02
   6.260  0.1954E+01  0.3726E+02
   6.270  0.1904E+01  0.3728E+02
   6.280  0.1865E+01  0.3730E+02
   6.290  0.1835E+01  0.3732E+02
   6.300  0.1805E+01  0.3734E+02
   6.310  0.1767E+01  0.3735E+02
   6.320  0.1730E+01  0.3737E+02
   6.330  0.1692E+01  0.3739E+02
   6.340  0.1660E+01  0.3741E+02
   6.350  0.1635E+01  0.3742E+02
   6.360  0.1612E+01  0.3744E+02
   6.370  0.1586E+01  0.3745E+02
   6.380  0.1558E+01  0.3747E+02
   6.390  0.1531E+01  0.3749E+02
   6.400  0.1507E+01  0.3750E+02
   6.410  0.1484E+01  0.3752E+02
   6.420  0.1461E+01  0.3753E+02
   6.430  0.1442E+01  0.3754E+02
   6.440  0.1425E+01  0.3756E+02
   6.450  0.1405E+01  0.3757E+02
   6.460  0.1383E+01  0.3759E+02
   6.470  0.1366E+01  0.3760E+02
   6.480  0.1351E+01  0.3761E+02
   6.490  0.1333E+01  0.3763E+02
   6.500  0.1314E+01  0.3764E+02
   6.510  0.1299E+01  0.3765E+02
   6.520  0.1285E+01  0.3767E+02
   6.530  0.1271E+01  0.3768E+02
   6.540  0.1257E+01  0.3769E+02
   6.550  0.1243E+01  0.3771E+02
   6.560  0.1231E+01  0.3772E+02
   6.570  0.1219E+01  0.3773E+02
   6.580  0.1206E+01  0.3774E+02
   6.590  0.1192E+01  0.3775E+02
   6.600  0.1178E+01  0.3777E+02
   6.610  0.1166E+01  0.3778E+02
   6.620  0.1155E+01  0.3779E+02
   6.630  0.1140E+01  0.3780E+02
   6.640  0.1128E+01  0.3781E+02
   6.650  0.1119E+01  0.3782E+02
   6.660  0.1111E+01  0.3783E+02
   6.670  0.1102E+01  0.3785E+02
   6.680  0.1093E+01  0.3786E+02
   6.690  0.1080E+01  0.3787E+02
   6.700  0.1070E+01  0.3788E+02
   6.710  0.1062E+01  0.3789E+02
   6.720  0.1054E+01  0.3790E+02
   6.730  0.1046E+01  0.3791E+02
   6.740  0.1036E+01  0.3792E+02
   6.750  0.1029E+01  0.3793E+02
   6.760  0.1023E+01  0.3794E+02
   6.770  0.1015E+01  0.3795E+02
   6.780  0.1006E+01  0.3796E+02
   6.790  0.9971E+00  0.3797E+02
   6.800  0.9876E+00  0.3798E+02
   6.810  0.9786E+00  0.3799E+02
   6.820  0.9715E+00  0.3800E+02
   6.830  0.9636E+00  0.3801E+02
   6.840  0.9542E+00  0.3802E+02
   6.850  0.9466E+00  0.3803E+02
   6.860  0.9413E+00  0.3804E+02
   6.870  0.9364E+00  0.3805E+02
   6.880  0.9315E+00  0.3806E+02
   6.890  0.9265E+00  0.3807E+02
   6.900  0.9195E+00  0.3808E+02
   6.910  0.9129E+00  0.3809E+02
   6.920  0.9080E+00  0.3809E+02
   6.930  0.9032E+00  0.3810E+02
   6.940  0.8975E+00  0.3811E+02
   6.950  0.8914E+00  0.3812E+02
   6.960  0.8846E+00  0.3813E+02
   6.970  0.8785E+00  0.3814E+02
   6.980  0.8729E+00  0.3815E+02
   6.990  0.8673E+00  0.3816E+02
   7.000  0.8614E+00  0.3816E+02
   7.010  0.8551E+00  0.3817E+02
   7.020  0.8486E+00  0.3818E+02
   7.030  0.8420E+00  0.3819E+02
   7.040  0.8363E+00  0.3820E+02
   7.050  0.8328E+00  0.3821E+02
   7.060  0.8279E+00  0.3822E+02
   7.070  0.8218E+00  0.3822E+02
   7.080  0.8176E+00  0.3823E+02
   7.090  0.8151E+00  0.3824E+02
   7.100  0.8125E+00  0.3825E+02
   7.110  0.8112E+00  0.3826E+02
   7.120  0.8081E+00  0.3826E+02
   7.130  0.8027E+00  0.3827E+02
   7.140  0.7991E+00  0.3828E+02
   7.150  0.7937E+00  0.3829E+02
   7.160  0.7870E+00  0.3830E+02
   7.170  0.7817E+00  0.3830E+02
   7.180  0.7767E+00  0.3831E+02
   7.190  0.7716E+00  0.3832E+02
   7.200  0.7668E+00  0.3833E+02
   7.210  0.7631E+00  0.3834E+02
   7.220  0.7600E+00  0.3834E+02
   7.230  0.7567E+00  0.3835E+02
   7.240  0.7532E+00  0.3836E+02
   7.250  0.7494E+00  0.3837E+02
   7.260  0.7449E+00  0.3837E+02
   7.270  0.7389E+00  0.3838E+02
   7.280  0.7339E+00  0.3839E+02
   7.290  0.7326E+00  0.3839E+02
   7.300  0.7317E+00  0.3840E+02
   7.310  0.7285E+00  0.3841E+02
   7.320  0.7268E+00  0.3842E+02
   7.330  0.7253E+00  0.3842E+02
   7.340  0.7233E+00  0.3843E+02
   7.350  0.7212E+00  0.3844E+02
   7.360  0.7175E+00  0.3845E+02
   7.370  0.7127E+00  0.3845E+02
   7.380  0.7079E+00  0.3846E+02
   7.390  0.7031E+00  0.3847E+02
   7.400  0.6982E+00  0.3847E+02
   7.410  0.6937E+00  0.3848E+02
   7.420  0.6894E+00  0.3849E+02
   7.430  0.6861E+00  0.3849E+02
   7.440  0.6826E+00  0.3850E+02
   7.450  0.6824E+00  0.3851E+02
   7.460  0.7861E+00  0.3852E+02
   7.470  0.9475E+00  0.3852E+02
   7.480  0.1158E+01  0.3853E+02
   7.490  0.1341E+01  0.3855E+02
   7.500  0.1392E+01  0.3856E+02
   7.510  0.1427E+01  0.3858E+02
   7.520  0.1421E+01  0.3859E+02
   7.530  0.1633E+01  0.3861E+02
   7.540  0.1970E+01  0.3862E+02
   7.550  0.2026E+01  0.3864E+02
   7.560  0.2092E+01  0.3866E+02
   7.570  0.2099E+01  0.3869E+02
   7.580  0.2063E+01  0.3871E+02
   7.590  0.2061E+01  0.3873E+02
   7.600  0.2101E+01  0.3875E+02
   7.610  0.2141E+01  0.3877E+02
   7.620  0.2160E+01  0.3879E+02
   7.630  0.2159E+01  0.3881E+02
   7.640  0.2133E+01  0.3883E+02
   7.650  0.2136E+01  0.3886E+02
   7.660  0.2157E+01  0.3888E+02
   7.670  0.2197E+01  0.3890E+02
   7.680  0.2225E+01  0.3892E+02
   7.690  0.2234E+01  0.3894E+02
   7.700  0.2238E+01  0.3897E+02
   7.710  0.2224E+01  0.3899E+02
   7.720  0.2236E+01  0.3901E+02
   7.730  0.2270E+01  0.3903E+02
   7.740  0.2301E+01  0.3906E+02
   7.750  0.2323E+01  0.3908E+02
   7.760  0.2359E+01  0.3910E+02
   7.770  0.2390E+01  0.3913E+02
   7.780  0.2412E+01  0.3915E+02
   7.790  0.2425E+01  0.3917E+02
   7.800  0.2438E+01  0.3920E+02
   7.810  0.2443E+01  0.3922E+02
   7.820  0.2467E+01  0.3925E+02
   7.830  0.2488E+01  0.3927E+02
   7.840  0.2520E+01  0.3930E+02
   7.850  0.2745E+01  0.3932E+02
   7.860  0.5726E+01  0.3936E+02
   7.870  0.4389E+01  0.3941E+02
   7.880  0.4286E+01  0.3945E+02
   7.890  0.4451E+01  0.3949E+02
   7.900  0.4455E+01  0.3954E+02
   7.910  0.4337E+01  0.3958E+02
   7.920  0.4380E+01  0.3962E+02
   7.930  0.4441E+01  0.3967E+02
   7.940  0.4504E+01  0.3971E+02
   7.950  0.4467E+01  0.3976E+02
   7.960  0.4511E+01  0.3980E+02
   7.970  0.4518E+01  0.3985E+02
   7.980  0.4542E+01  0.3989E+02
   7.990  0.4593E+01  0.3994E+02
   8.000  0.4688E+01  0.3999E+02
   8.010  0.4760E+01  0.4003E+02
   8.020  0.4856E+01  0.4008E+02
   8.030  0.5592E+01  0.4013E+02
   8.040  0.5049E+01  0.4019E+02
   8.050  0.4798E+01  0.4024E+02
   8.060  0.4622E+01  0.4028E+02
   8.070  0.4537E+01  0.4033E+02
   8.080  0.4726E+01  0.4037E+02
   8.090  0.4603E+01  0.4042E+02
   8.100  0.4570E+01  0.4047E+02
   8.110  0.4413E+01  0.4051E+02
   8.120  0.4208E+01  0.4055E+02
   8.130  0.4140E+01  0.4060E+02
   8.140  0.4104E+01  0.4064E+02
   8.150  0.4018E+01  0.4068E+02
   8.160  0.3809E+01  0.4072E+02
   8.170  0.3694E+01  0.4075E+02
   8.180  0.3593E+01  0.4079E+02
   8.190  0.3579E+01  0.4083E+02
   8.200  0.3660E+01  0.4086E+02
   8.210  0.3686E+01  0.4090E+02
   8.220  0.3748E+01  0.4094E+02
   8.230  0.3844E+01  0.4098E+02
   8.240  0.4065E+01  0.4101E+02
   8.250  0.4298E+01  0.4106E+02
   8.260  0.4536E+01  0.4110E+02
   8.270  0.4707E+01  0.4115E+02
   8.280  0.4663E+01  0.4119E+02
   8.290  0.4939E+01  0.4124E+02
   8.300  0.5182E+01  0.4129E+02
   8.310  0.5630E+01  0.4135E+02
   8.320  0.6082E+01  0.4140E+02
   8.330  0.6325E+01  0.4147E+02
   8.340  0.6678E+01  0.4153E+02
   8.350  0.7076E+01  0.4160E+02
   8.360  0.7707E+01  0.4167E+02
   8.370  0.7599E+01  0.4175E+02
   8.380  0.7062E+01  0.4182E+02
   8.390  0.6388E+01  0.4189E+02
   8.400  0.6260E+01  0.4195E+02
   8.410  0.6234E+01  0.4202E+02
   8.420  0.6139E+01  0.4208E+02
   8.430  0.6033E+01  0.4214E+02
   8.440  0.5978E+01  0.4220E+02
   8.450  0.5769E+01  0.4226E+02
   8.460  0.5616E+01  0.4231E+02
   8.470  0.5555E+01  0.4237E+02
   8.480  0.5495E+01  0.4243E+02
   8.490  0.5479E+01  0.4248E+02
   8.500  0.5536E+01  0.4254E+02
   8.510  0.5622E+01  0.4259E+02
   8.520  0.5611E+01  0.4265E+02
   8.530  0.5619E+01  0.4270E+02
   8.540  0.5621E+01  0.4276E+02
   8.550  0.5643E+01  0.4282E+02
   8.560  0.5734E+01  0.4287E+02
   8.570  0.5896E+01  0.4293E+02
   8.580  0.6147E+01  0.4299E+02
   8.590  0.5771E+01  0.4305E+02
   8.600  0.5818E+01  0.4310E+02
   8.610  0.5917E+01  0.4316E+02
   8.620  0.5938E+01  0.4322E+02
   8.630  0.5983E+01  0.4328E+02
   8.640  0.6030E+01  0.4334E+02
   8.650  0.6194E+01  0.4340E+02
   8.660  0.6408E+01  0.4347E+02
   8.670  0.6975E+01  0.4353E+02
   8.680  0.7068E+01  0.4360E+02
   8.690  0.7413E+01  0.4368E+02
   8.700  0.7180E+01  0.4375E+02
   8.710  0.6613E+01  0.4382E+02
   8.720  0.5870E+01  0.4388E+02
   8.730  0.5690E+01  0.4394E+02
   8.740  0.5653E+01  0.4400E+02
   8.750  0.5592E+01  0.4405E+02
   8.760  0.5090E+01  0.4410E+02
   8.770  0.5031E+01  0.4416E+02
   8.780  0.4918E+01  0.4421E+02
   8.790  0.4807E+01  0.4425E+02
   8.800  0.4641E+01  0.4430E+02
   8.810  0.4464E+01  0.4435E+02
   8.820  0.4331E+01  0.4439E+02
   8.830  0.4116E+01  0.4443E+02
   8.840  0.3938E+01  0.4447E+02
   8.850  0.3845E+01  0.4451E+02
   8.860  0.4040E+01  0.4455E+02
   8.870  0.4288E+01  0.4459E+02
   8.880  0.4362E+01  0.4464E+02
   8.890  0.4253E+01  0.4468E+02
   8.900  0.4003E+01  0.4472E+02
   8.910  0.3869E+01  0.4476E+02
   8.920  0.3734E+01  0.4480E+02
   8.930  0.3710E+01  0.4483E+02
   8.940  0.3803E+01  0.4487E+02
   8.950  0.4054E+01  0.4491E+02
   8.960  0.3781E+01  0.4495E+02
   8.970  0.3760E+01  0.4499E+02
   8.980  0.3781E+01  0.4502E+02
   8.990  0.3812E+01  0.4506E+02
   9.000  0.3794E+01  0.4510E+02
   9.010  0.3838E+01  0.4514E+02
   9.020  0.3811E+01  0.4518E+02
   9.030  0.3812E+01  0.4521E+02
   9.040  0.3862E+01  0.4525E+02
   9.050  0.3959E+01  0.4529E+02
   9.060  0.4068E+01  0.4533E+02
   9.070  0.4103E+01  0.4537E+02
   9.080  0.4186E+01  0.4541E+02
   9.090  0.4178E+01  0.4546E+02
   9.100  0.4227E+01  0.4550E+02
   9.110  0.4304E+01  0.4554E+02
   9.120  0.4410E+01  0.4558E+02
   9.130  0.4539E+01  0.4563E+02
   9.140  0.4627E+01  0.4568E+02
   9.150  0.4690E+01  0.4572E+02
   9.160  0.4782E+01  0.4577E+02
   9.170  0.4835E+01  0.4582E+02
   9.180  0.4875E+01  0.4587E+02
   9.190  0.4930E+01  0.4591E+02
   9.200  0.5019E+01  0.4596E+02
   9.210  0.5069E+01  0.4602E+02
   9.220  0.5082E+01  0.4607E+02
   9.230  0.4988E+01  0.4612E+02
   9.240  0.4748E+01  0.4617E+02
   9.250  0.4617E+01  0.4621E+02
   9.260  0.4459E+01  0.4626E+02
   9.270  0.4276E+01  0.4630E+02
   9.280  0.4118E+01  0.4634E+02
   9.290  0.3997E+01  0.4638E+02
   9.300  0.3864E+01  0.4642E+02
   9.310  0.3750E+01  0.4646E+02
   9.320  0.3684E+01  0.4650E+02
   9.330  0.3640E+01  0.4653E+02
   9.340  0.3595E+01  0.4657E+02
   9.350  0.3541E+01  0.4661E+02
   9.360  0.3486E+01  0.4664E+02
   9.370  0.3435E+01  0.4668E+02
   9.380  0.3365E+01  0.4671E+02
   9.390  0.3338E+01  0.4674E+02
   9.400  0.3291E+01  0.4678E+02
   9.410  0.3263E+01  0.4681E+02
   9.420  0.3236E+01  0.4684E+02
   9.430  0.3236E+01  0.4687E+02
   9.440  0.3250E+01  0.4691E+02
   9.450  0.3268E+01  0.4694E+02
   9.460  0.3207E+01  0.4697E+02
   9.470  0.3145E+01  0.4700E+02
   9.480  0.3125E+01  0.4703E+02
   9.490  0.3116E+01  0.4707E+02
   9.500  0.3104E+01  0.4710E+02
   9.510  0.3088E+01  0.4713E+02
   9.520  0.3068E+01  0.4716E+02
   9.530  0.3056E+01  0.4719E+02
   9.540  0.3053E+01  0.4722E+02
   9.550  0.3060E+01  0.4725E+02
   9.560  0.3069E+01  0.4728E+02
   9.570  0.3072E+01  0.4731E+02
   9.580  0.3045E+01  0.4734E+02
   9.590  0.3017E+01  0.4737E+02
   9.600  0.3016E+01  0.4740E+02
   9.610  0.3016E+01  0.4743E+02
   9.620  0.3033E+01  0.4746E+02
   9.630  0.3033E+01  0.4749E+02
   9.640  0.3030E+01  0.4752E+02
   9.650  0.3015E+01  0.4755E+02
   9.660  0.3000E+01  0.4758E+02
   9.670  0.2989E+01  0.4761E+02
   9.680  0.2991E+01  0.4764E+02
   9.690  0.2993E+01  0.4767E+02
   9.700  0.2999E+01  0.4770E+02
   9.710  0.3004E+01  0.4773E+02
   9.720  0.3005E+01  0.4776E+02
   9.730  0.3008E+01  0.4779E+02
   9.740  0.3010E+01  0.4782E+02
   9.750  0.3015E+01  0.4785E+02
   9.760  0.3104E+01  0.4789E+02
   9.770  0.3055E+01  0.4792E+02
   9.780  0.3053E+01  0.4795E+02
   9.790  0.3055E+01  0.4798E+02
   9.800  0.3051E+01  0.4801E+02
   9.810  0.3058E+01  0.4804E+02
   9.820  0.3068E+01  0.4807E+02
   9.830  0.3082E+01  0.4810E+02
   9.840  0.3094E+01  0.4813E+02
   9.850  0.3105E+01  0.4816E+02
   9.860  0.3117E+01  0.4819E+02
   9.870  0.3132E+01  0.4822E+02
   9.880  0.3148E+01  0.4826E+02
   9.890  0.3167E+01  0.4829E+02
   9.900  0.3189E+01  0.4832E+02
   9.910  0.3243E+01  0.4835E+02
   9.920  0.3286E+01  0.4838E+02
   9.930  0.3341E+01  0.4842E+02
   9.940  0.3342E+01  0.4845E+02
   9.950  0.3369E+01  0.4848E+02
   9.960  0.3421E+01  0.4852E+02
   9.970  0.3480E+01  0.4855E+02
   9.980  0.3533E+01  0.4859E+02
   9.990  0.3593E+01  0.4862E+02
  10.000  0.3668E+01  0.4866E+02
  10.010  0.3751E+01  0.4870E+02
  10.020  0.3839E+01  0.4873E+02
  10.030  0.3937E+01  0.4877E+02
  10.040  0.3993E+01  0.4881E+02
  10.050  0.3843E+01  0.4885E+02
  10.060  0.3808E+01  0.4889E+02
  10.070  0.3876E+01  0.4893E+02
  10.080  0.3896E+01  0.4897E+02
  10.090  0.4060E+01  0.4901E+02
  10.100  0.4074E+01  0.4905E+02
  10.110  0.4088E+01  0.4909E+02
  10.120  0.4073E+01  0.4913E+02
  10.130  0.3966E+01  0.4917E+02
  10.140  0.3939E+01  0.4921E+02
  10.150  0.3949E+01  0.4925E+02
  10.160  0.3817E+01  0.4929E+02
  10.170  0.3735E+01  0.4933E+02
  10.180  0.3670E+01  0.4936E+02
  10.190  0.3649E+01  0.4940E+02
  10.200  0.3672E+01  0.4944E+02
  10.210  0.3738E+01  0.4947E+02
  10.220  0.3794E+01  0.4951E+02
  10.230  0.3875E+01  0.4955E+02
  10.240  0.3947E+01  0.4959E+02
  10.250  0.4021E+01  0.4963E+02
  10.260  0.4091E+01  0.4967E+02
  10.270  0.4152E+01  0.4971E+02
  10.280  0.4217E+01  0.4975E+02
  10.290  0.4240E+01  0.4979E+02
  10.300  0.4188E+01  0.4984E+02
  10.310  0.4099E+01  0.4988E+02
  10.320  0.4091E+01  0.4992E+02
  10.330  0.4059E+01  0.4996E+02
  10.340  0.4038E+01  0.5000E+02
  10.350  0.4022E+01  0.5004E+02
  10.360  0.4009E+01  0.5008E+02
  10.370  0.4060E+01  0.5012E+02
  10.380  0.4071E+01  0.5016E+02
  10.390  0.4064E+01  0.5020E+02
  10.400  0.4032E+01  0.5024E+02
  10.410  0.4029E+01  0.5028E+02
  10.420  0.4032E+01  0.5032E+02
  10.430  0.4038E+01  0.5036E+02
  10.440  0.4044E+01  0.5040E+02
  10.450  0.4046E+01  0.5044E+02
  10.460  0.4061E+01  0.5048E+02
  10.470  0.4094E+01  0.5052E+02
  10.480  0.4146E+01  0.5057E+02
  10.490  0.4112E+01  0.5061E+02
  10.500  0.4143E+01  0.5065E+02
  10.510  0.4158E+01  0.5069E+02
  10.520  0.4158E+01  0.5073E+02
  10.530  0.4203E+01  0.5077E+02
  10.540  0.4248E+01  0.5082E+02
  10.550  0.4286E+01  0.5086E+02
  10.560  0.4429E+01  0.5090E+02
  10.570  0.4370E+01  0.5095E+02
  10.580  0.4459E+01  0.5099E+02
  10.590  0.4408E+01  0.5103E+02
  10.600  0.4486E+01  0.5108E+02
  10.610  0.4506E+01  0.5112E+02
  10.620  0.4589E+01  0.5117E+02
  10.630  0.4677E+01  0.5122E+02
  10.640  0.4778E+01  0.5126E+02
  10.650  0.4842E+01  0.5131E+02
  10.660  0.4974E+01  0.5136E+02
  10.670  0.5013E+01  0.5141E+02
  10.680  0.5101E+01  0.5146E+02
  10.690  0.5107E+01  0.5151E+02
  10.700  0.5221E+01  0.5156E+02
  10.710  0.5361E+01  0.5162E+02
  10.720  0.5322E+01  0.5167E+02
  10.730  0.5260E+01  0.5172E+02
  10.740  0.5266E+01  0.5178E+02
  10.750  0.5420E+01  0.5183E+02
  10.760  0.5533E+01  0.5188E+02
  10.770  0.5892E+01  0.5194E+02
  10.780  0.5697E+01  0.5200E+02
  10.790  0.5430E+01  0.5205E+02
  10.800  0.5393E+01  0.5211E+02
  10.810  0.5359E+01  0.5216E+02
  10.820  0.5216E+01  0.5222E+02
  10.830  0.4996E+01  0.5227E+02
  10.840  0.4917E+01  0.5232E+02
  10.850  0.5139E+01  0.5237E+02
  10.860  0.5403E+01  0.5242E+02
  10.870  0.5240E+01  0.5247E+02
  10.880  0.5149E+01  0.5252E+02
  10.890  0.5060E+01  0.5258E+02
  10.900  0.5071E+01  0.5263E+02
  10.910  0.5097E+01  0.5268E+02
  10.920  0.5019E+01  0.5273E+02
  10.930  0.5126E+01  0.5278E+02
  10.940  0.5285E+01  0.5283E+02
  10.950  0.5415E+01  0.5288E+02
  10.960  0.5587E+01  0.5294E+02
  10.970  0.5722E+01  0.5300E+02
  10.980  0.5781E+01  0.5305E+02
  10.990  0.5928E+01  0.5311E+02
  11.000  0.6150E+01  0.5317E+02
  11.010  0.6616E+01  0.5324E+02
  11.020  0.6896E+01  0.5330E+02
  11.030  0.7123E+01  0.5337E+02
  11.040  0.7827E+01  0.5345E+02
  11.050  0.7909E+01  0.5353E+02
  11.060  0.7884E+01  0.5361E+02
  11.070  0.7419E+01  0.5369E+02
  11.080  0.7286E+01  0.5376E+02
  11.090  0.6998E+01  0.5383E+02
  11.100  0.7034E+01  0.5390E+02
  11.110  0.6841E+01  0.5397E+02
  11.120  0.6967E+01  0.5404E+02
  11.130  0.6865E+01  0.5411E+02
  11.140  0.6831E+01  0.5418E+02
  11.150  0.6686E+01  0.5425E+02
  11.160  0.6557E+01  0.5431E+02
  11.170  0.6561E+01  0.5438E+02
  11.180  0.6608E+01  0.5444E+02
  11.190  0.6558E+01  0.5451E+02
  11.200  0.6499E+01  0.5458E+02
  11.210  0.6162E+01  0.5464E+02
  11.220  0.5841E+01  0.5470E+02
  11.230  0.5722E+01  0.5476E+02
  11.240  0.5645E+01  0.5481E+02
  11.250  0.5449E+01  0.5487E+02
  11.260  0.5383E+01  0.5492E+02
  11.270  0.5364E+01  0.5498E+02
  11.280  0.5454E+01  0.5503E+02
  11.290  0.5465E+01  0.5508E+02
  11.300  0.5508E+01  0.5514E+02
  11.310  0.5567E+01  0.5519E+02
  11.320  0.5741E+01  0.5525E+02
  11.330  0.5680E+01  0.5531E+02
  11.340  0.5701E+01  0.5536E+02
  11.350  0.5611E+01  0.5542E+02
  11.360  0.5573E+01  0.5548E+02
  11.370  0.5500E+01  0.5553E+02
  11.380  0.5395E+01  0.5559E+02
  11.390  0.5337E+01  0.5564E+02
  11.400  0.5279E+01  0.5570E+02
  11.410  0.5295E+01  0.5575E+02
  11.420  0.5326E+01  0.5580E+02
  11.430  0.5463E+01  0.5585E+02
  11.440  0.5500E+01  0.5591E+02
  11.450  0.5568E+01  0.5596E+02
  11.460  0.5943E+01  0.5602E+02
  11.470  0.5840E+01  0.5608E+02
  11.480  0.5956E+01  0.5614E+02
  11.490  0.6233E+01  0.5620E+02
  11.500  0.6465E+01  0.5626E+02
  11.510  0.7008E+01  0.5633E+02
  11.520  0.7396E+01  0.5640E+02
  11.530  0.7114E+01  0.5647E+02
  11.540  0.7076E+01  0.5654E+02
  11.550  0.7369E+01  0.5661E+02
  11.560  0.7292E+01  0.5669E+02
  11.570  0.7005E+01  0.5676E+02
  11.580  0.6979E+01  0.5683E+02
  11.590  0.6955E+01  0.5690E+02
  11.600  0.6923E+01  0.5697E+02
  11.610  0.6976E+01  0.5704E+02
  11.620  0.7142E+01  0.5711E+02
  11.630  0.7427E+01  0.5718E+02
  11.640  0.7665E+01  0.5726E+02
  11.650  0.7510E+01  0.5733E+02
  11.660  0.7745E+01  0.5741E+02
  11.670  0.7661E+01  0.5749E+02
  11.680  0.7673E+01  0.5757E+02
  11.690  0.7856E+01  0.5764E+02
  11.700  0.8191E+01  0.5772E+02
  11.710  0.9636E+01  0.5781E+02
  11.720  0.9477E+01  0.5791E+02
  11.730  0.9573E+01  0.5800E+02
  11.740  0.9384E+01  0.5810E+02
  11.750  0.8553E+01  0.5819E+02
  11.760  0.8790E+01  0.5827E+02
  11.770  0.8744E+01  0.5836E+02
  11.780  0.8818E+01  0.5845E+02
  11.790  0.8657E+01  0.5854E+02
  11.800  0.8452E+01  0.5862E+02
  11.810  0.8436E+01  0.5871E+02
  11.820  0.8545E+01  0.5879E+02
  11.830  0.8651E+01  0.5888E+02
  11.840  0.8767E+01  0.5897E+02
  11.850  0.8543E+01  0.5905E+02
  11.860  0.8542E+01  0.5914E+02
  11.870  0.7811E+01  0.5922E+02
  11.880  0.7498E+01  0.5930E+02
  11.890  0.7021E+01  0.5937E+02
  11.900  0.6745E+01  0.5944E+02
  11.910  0.6352E+01  0.5950E+02
  11.920  0.6319E+01  0.5957E+02
  11.930  0.6285E+01  0.5963E+02
  11.940  0.5959E+01  0.5969E+02
  11.950  0.5796E+01  0.5975E+02
  11.960  0.6200E+01  0.5981E+02
  11.970  0.5850E+01  0.5987E+02
  11.980  0.5940E+01  0.5993E+02
  11.990  0.5971E+01  0.5999E+02
  12.000  0.6200E+01  0.6005E+02
  12.010  0.6421E+01  0.6011E+02
  12.020  0.6459E+01  0.6018E+02
  12.030  0.6696E+01  0.6024E+02
  12.040  0.7109E+01  0.6031E+02
  12.050  0.7314E+01  0.6038E+02
  12.060  0.7521E+01  0.6046E+02
  12.070  0.7678E+01  0.6054E+02
  12.080  0.6667E+01  0.6061E+02
  12.090  0.6001E+01  0.6067E+02
  12.100  0.5451E+01  0.6073E+02
  12.110  0.5322E+01  0.6078E+02
  12.120  0.5110E+01  0.6083E+02
  12.130  0.4893E+01  0.6088E+02
  12.140  0.4750E+01  0.6093E+02
  12.150  0.4761E+01  0.6098E+02
  12.160  0.4977E+01  0.6103E+02
  12.170  0.4792E+01  0.6108E+02
  12.180  0.4746E+01  0.6112E+02
  12.190  0.4794E+01  0.6117E+02
  12.200  0.4790E+01  0.6122E+02
  12.210  0.4651E+01  0.6127E+02
  12.220  0.4622E+01  0.6131E+02
  12.230  0.4605E+01  0.6136E+02
  12.240  0.4628E+01  0.6141E+02
  12.250  0.4801E+01  0.6145E+02
  12.260  0.4744E+01  0.6150E+02
  12.270  0.4777E+01  0.6155E+02
  12.280  0.4790E+01  0.6160E+02
  12.290  0.4810E+01  0.6165E+02
  12.300  0.4760E+01  0.6169E+02
  12.310  0.4628E+01  0.6174E+02
  12.320  0.4620E+01  0.6179E+02
  12.330  0.4630E+01  0.6183E+02
  12.340  0.4702E+01  0.6188E+02
  12.350  0.4684E+01  0.6193E+02
  12.360  0.4727E+01  0.6197E+02
  12.370  0.4741E+01  0.6202E+02
  12.380  0.4757E+01  0.6207E+02
  12.390  0.4789E+01  0.6212E+02
  12.400  0.4811E+01  0.6216E+02
  12.410  0.4794E+01  0.6221E+02
  12.420  0.4830E+01  0.6226E+02
  12.430  0.4812E+01  0.6231E+02
  12.440  0.4839E+01  0.6236E+02
  12.450  0.4894E+01  0.6240E+02
  12.460  0.4914E+01  0.6245E+02
  12.470  0.4939E+01  0.6250E+02
  12.480  0.4965E+01  0.6255E+02
  12.490  0.5019E+01  0.6260E+02
  12.500  0.5095E+01  0.6265E+02
  12.510  0.5146E+01  0.6270E+02
  12.520  0.5237E+01  0.6276E+02
  12.530  0.5313E+01  0.6281E+02
  12.540  0.5402E+01  0.6286E+02
  12.550  0.5520E+01  0.6292E+02
  12.560  0.5589E+01  0.6297E+02
  12.570  0.5560E+01  0.6303E+02
  12.580  0.5560E+01  0.6308E+02
  12.590  0.5575E+01  0.6314E+02
  12.600  0.5633E+01  0.6320E+02
  12.610  0.5697E+01  0.6325E+02
  12.620  0.5590E+01  0.6331E+02
  12.630  0.5628E+01  0.6337E+02
  12.640  0.5792E+01  0.6342E+02
  12.650  0.6132E+01  0.6348E+02
  12.660  0.6181E+01  0.6354E+02
  12.670  0.6329E+01  0.6361E+02
  12.680  0.6416E+01  0.6367E+02
  12.690  0.6538E+01  0.6373E+02
  12.700  0.6704E+01  0.6380E+02
  12.710  0.6895E+01  0.6387E+02
  12.720  0.6916E+01  0.6394E+02
  12.730  0.7042E+01  0.6401E+02
  12.740  0.7205E+01  0.6408E+02
  12.750  0.7309E+01  0.6415E+02
  12.760  0.7266E+01  0.6422E+02
  12.770  0.7285E+01  0.6430E+02
  12.780  0.7171E+01  0.6437E+02
  12.790  0.7033E+01  0.6444E+02
  12.800  0.6985E+01  0.6451E+02
  12.810  0.7142E+01  0.6458E+02
  12.820  0.7279E+01  0.6466E+02
  12.830  0.7616E+01  0.6473E+02
  12.840  0.7924E+01  0.6481E+02
  12.850  0.8401E+01  0.6489E+02
  12.860  0.8650E+01  0.6497E+02
  12.870  0.8743E+01  0.6506E+02
  12.880  0.8315E+01  0.6515E+02
  12.890  0.8102E+01  0.6523E+02
  12.900  0.8045E+01  0.6531E+02
  12.910  0.7704E+01  0.6539E+02
  12.920  0.7489E+01  0.6547E+02
  12.930  0.7170E+01  0.6554E+02
  12.940  0.6983E+01  0.6561E+02
  12.950  0.6931E+01  0.6568E+02
  12.960  0.6940E+01  0.6575E+02
  12.970  0.6810E+01  0.6582E+02
  12.980  0.6522E+01  0.6588E+02
  12.990  0.6142E+01  0.6595E+02
  13.000  0.5881E+01  0.6601E+02
  13.010  0.5619E+01  0.6606E+02
  13.020  0.5162E+01  0.6612E+02
  13.030  0.5074E+01  0.6617E+02
  13.040  0.5098E+01  0.6622E+02
  13.050  0.5102E+01  0.6627E+02
  13.060  0.4739E+01  0.6632E+02
  13.070  0.4434E+01  0.6637E+02
  13.080  0.4380E+01  0.6641E+02
  13.090  0.4331E+01  0.6645E+02
  13.100  0.4304E+01  0.6650E+02
  13.110  0.4329E+01  0.6654E+02
  13.120  0.4378E+01  0.6658E+02
  13.130  0.4471E+01  0.6663E+02
  13.140  0.4832E+01  0.6667E+02
  13.150  0.5049E+01  0.6672E+02
  13.160  0.5006E+01  0.6677E+02
  13.170  0.5277E+01  0.6683E+02
  13.180  0.5371E+01  0.6688E+02
  13.190  0.5255E+01  0.6693E+02
  13.200  0.5026E+01  0.6698E+02
  13.210  0.4872E+01  0.6703E+02
  13.220  0.4867E+01  0.6708E+02
  13.230  0.4927E+01  0.6713E+02
  13.240  0.4982E+01  0.6718E+02
  13.250  0.5113E+01  0.6723E+02
  13.260  0.5222E+01  0.6728E+02
  13.270  0.5299E+01  0.6734E+02
  13.280  0.5308E+01  0.6739E+02
  13.290  0.5289E+01  0.6744E+02
  13.300  0.5222E+01  0.6749E+02
  13.310  0.5067E+01  0.6755E+02
  13.320  0.4987E+01  0.6760E+02
  13.330  0.4912E+01  0.6765E+02
  13.340  0.4884E+01  0.6769E+02
  13.350  0.4821E+01  0.6774E+02
  13.360  0.4779E+01  0.6779E+02
  13.370  0.4835E+01  0.6784E+02
  13.380  0.4913E+01  0.6789E+02
  13.390  0.4918E+01  0.6794E+02
  13.400  0.4906E+01  0.6799E+02
  13.410  0.4962E+01  0.6804E+02
  13.420  0.4947E+01  0.6809E+02
  13.430  0.4929E+01  0.6813E+02
  13.440  0.4758E+01  0.6818E+02
  13.450  0.4673E+01  0.6823E+02
  13.460  0.4680E+01  0.6828E+02
  13.470  0.4629E+01  0.6832E+02
  13.480  0.4616E+01  0.6837E+02
  13.490  0.4545E+01  0.6842E+02
  13.500  0.4635E+01  0.6846E+02
  13.510  0.4448E+01  0.6851E+02
  13.520  0.4208E+01  0.6855E+02
  13.530  0.4123E+01  0.6859E+02
  13.540  0.3918E+01  0.6863E+02
  13.550  0.3962E+01  0.6867E+02
  13.560  0.4099E+01  0.6871E+02
  13.570  0.4147E+01  0.6875E+02
  13.580  0.4185E+01  0.6879E+02
  13.590  0.4190E+01  0.6884E+02
  13.600  0.4187E+01  0.6888E+02
  13.610  0.4189E+01  0.6892E+02
  13.620  0.4140E+01  0.6896E+02
  13.630  0.4117E+01  0.6900E+02
  13.640  0.4137E+01  0.6904E+02
  13.650  0.4201E+01  0.6909E+02
  13.660  0.4282E+01  0.6913E+02
  13.670  0.4418E+01  0.6917E+02
  13.680  0.4589E+01  0.6922E+02
  13.690  0.4699E+01  0.6926E+02
  13.700  0.4896E+01  0.6931E+02
  13.710  0.4869E+01  0.6936E+02
  13.720  0.4804E+01  0.6941E+02
  13.730  0.4441E+01  0.6946E+02
  13.740  0.4187E+01  0.6950E+02
  13.750  0.4147E+01  0.6954E+02
  13.760  0.4208E+01  0.6958E+02
  13.770  0.4195E+01  0.6962E+02
  13.780  0.4251E+01  0.6967E+02
  13.790  0.4253E+01  0.6971E+02
  13.800  0.4145E+01  0.6975E+02
  13.810  0.4106E+01  0.6979E+02
  13.820  0.4029E+01  0.6983E+02
  13.830  0.4070E+01  0.6987E+02
  13.840  0.4032E+01  0.6991E+02
  13.850  0.4081E+01  0.6995E+02
  13.860  0.4307E+01  0.7000E+02
  13.870  0.4439E+01  0.7004E+02
  13.880  0.4837E+01  0.7009E+02
  13.890  0.5133E+01  0.7014E+02
  13.900  0.5482E+01  0.7019E+02
  13.910  0.5534E+01  0.7024E+02
  13.920  0.5656E+01  0.7030E+02
  13.930  0.5736E+01  0.7036E+02
  13.940  0.6038E+01  0.7042E+02
  13.950  0.6041E+01  0.7048E+02
  13.960  0.6153E+01  0.7054E+02
  13.970  0.6439E+01  0.7060E+02
  13.980  0.6629E+01  0.7067E+02
  13.990  0.6903E+01  0.7073E+02
  14.000  0.7081E+01  0.7080E+02
  14.010  0.7266E+01  0.7088E+02
  14.020  0.7210E+01  0.7095E+02
  14.030  0.6961E+01  0.7102E+02
  14.040  0.6696E+01  0.7109E+02
  14.050  0.6618E+01  0.7115E+02
  14.060  0.6565E+01  0.7122E+02
  14.070  0.6645E+01  0.7129E+02
  14.080  0.6651E+01  0.7135E+02
  14.090  0.6689E+01  0.7142E+02
  14.100  0.6560E+01  0.7149E+02
  14.110  0.6455E+01  0.7155E+02
  14.120  0.6265E+01  0.7162E+02
  14.130  0.6135E+01  0.7168E+02
  14.140  0.5986E+01  0.7174E+02
  14.150  0.5876E+01  0.7180E+02
  14.160  0.5777E+01  0.7186E+02
  14.170  0.5652E+01  0.7191E+02
  14.180  0.5606E+01  0.7197E+02
  14.190  0.5645E+01  0.7202E+02
  14.200  0.5708E+01  0.7208E+02
  14.210  0.5673E+01  0.7214E+02
  14.220  0.5825E+01  0.7220E+02
  14.230  0.6119E+01  0.7225E+02
  14.240  0.5677E+01  0.7231E+02
  14.250  0.5740E+01  0.7237E+02
  14.260  0.5689E+01  0.7243E+02
  14.270  0.5659E+01  0.7248E+02
  14.280  0.5594E+01  0.7254E+02
  14.290  0.5761E+01  0.7260E+02
  14.300  0.5698E+01  0.7265E+02
  14.310  0.5907E+01  0.7271E+02
  14.320  0.6056E+01  0.7277E+02
  14.330  0.6182E+01  0.7283E+02
  14.340  0.6368E+01  0.7289E+02
  14.350  0.6273E+01  0.7296E+02
  14.360  0.6149E+01  0.7302E+02
  14.370  0.6226E+01  0.7308E+02
  14.380  0.6127E+01  0.7314E+02
  14.390  0.6222E+01  0.7320E+02
  14.400  0.6161E+01  0.7327E+02
  14.410  0.6213E+01  0.7333E+02
  14.420  0.6203E+01  0.7339E+02
  14.430  0.6245E+01  0.7345E+02
  14.440  0.6026E+01  0.7351E+02
  14.450  0.5801E+01  0.7357E+02
  14.460  0.5717E+01  0.7363E+02
  14.470  0.5748E+01  0.7369E+02
  14.480  0.5615E+01  0.7374E+02
  14.490  0.5554E+01  0.7380E+02
  14.500  0.5578E+01  0.7386E+02
  14.510  0.5495E+01  0.7391E+02
  14.520  0.5806E+01  0.7397E+02
  14.530  0.5672E+01  0.7403E+02
  14.540  0.5237E+01  0.7408E+02
  14.550  0.5195E+01  0.7413E+02
  14.560  0.4906E+01  0.7418E+02
  14.570  0.4800E+01  0.7423E+02
  14.580  0.4890E+01  0.7428E+02
  14.590  0.4835E+01  0.7433E+02
  14.600  0.4929E+01  0.7438E+02
  14.610  0.5098E+01  0.7443E+02
  14.620  0.5299E+01  0.7448E+02
  14.630  0.5429E+01  0.7453E+02
  14.640  0.5581E+01  0.7459E+02
  14.650  0.5826E+01  0.7464E+02
  14.660  0.6033E+01  0.7470E+02
  14.670  0.6363E+01  0.7476E+02
  14.680  0.6387E+01  0.7483E+02
  14.690  0.6377E+01  0.7489E+02
  14.700  0.6578E+01  0.7496E+02
  14.710  0.6624E+01  0.7502E+02
  14.720  0.6620E+01  0.7509E+02
  14.730  0.6649E+01  0.7515E+02
  14.740  0.7299E+01  0.7522E+02
  14.750  0.6197E+01  0.7529E+02
  14.760  0.6208E+01  0.7535E+02
  14.770  0.6040E+01  0.7541E+02
  14.780  0.6010E+01  0.7547E+02
  14.790  0.5979E+01  0.7553E+02
  14.800  0.5996E+01  0.7559E+02
  14.810  0.6047E+01  0.7565E+02
  14.820  0.6202E+01  0.7571E+02
  14.830  0.6257E+01  0.7578E+02
  14.840  0.6313E+01  0.7584E+02
  14.850  0.6420E+01  0.7590E+02
  14.860  0.6478E+01  0.7597E+02
  14.870  0.6572E+01  0.7603E+02
  14.880  0.6633E+01  0.7610E+02
  14.890  0.6880E+01  0.7617E+02
  14.900  0.6532E+01  0.7623E+02
  14.910  0.6494E+01  0.7630E+02
  14.920  0.6321E+01  0.7636E+02
  14.930  0.6317E+01  0.7642E+02
  14.940  0.6716E+01  0.7649E+02
  14.950  0.6909E+01  0.7656E+02
  14.960  0.6891E+01  0.7663E+02
  14.970  0.7092E+01  0.7670E+02
  14.980  0.7243E+01  0.7677E+02
  14.990  0.7397E+01  0.7684E+02
  15.000  0.7504E+01  0.7692E+02
