#  E (eV)   dos(E)     Int dos(E) EFermi =   -1.028 eV
 -15.000  0.0000E+00  0.4000E+01
 -14.990  0.0000E+00  0.4000E+01
 -14.980  0.0000E+00  0.4000E+01
 -14.970  0.0000E+00  0.4000E+01
 -14.960  0.0000E+00  0.4000E+01
 -14.950  0.0000E+00  0.4000E+01
 -14.940  0.0000E+00  0.4000E+01
 -14.930  0.0000E+00  0.4000E+01
 -14.920  0.0000E+00  0.4000E+01
 -14.910  0.0000E+00  0.4000E+01
 -14.900  0.0000E+00  0.4000E+01
 -14.890  0.0000E+00  0.4000E+01
 -14.880  0.0000E+00  0.4000E+01
 -14.870  0.0000E+00  0.4000E+01
 -14.860  0.0000E+00  0.4000E+01
 -14.850  0.0000E+00  0.4000E+01
 -14.840  0.0000E+00  0.4000E+01
 -14.830  0.0000E+00  0.4000E+01
 -14.820  0.0000E+00  0.4000E+01
 -14.810  0.0000E+00  0.4000E+01
 -14.800  0.0000E+00  0.4000E+01
 -14.790  0.0000E+00  0.4000E+01
 -14.780  0.0000E+00  0.4000E+01
 -14.770  0.0000E+00  0.4000E+01
 -14.760  0.0000E+00  0.4000E+01
 -14.750  0.0000E+00  0.4000E+01
 -14.740  0.0000E+00  0.4000E+01
 -14.730  0.0000E+00  0.4000E+01
 -14.720  0.0000E+00  0.4000E+01
 -14.710  0.0000E+00  0.4000E+01
 -14.700  0.0000E+00  0.4000E+01
 -14.690  0.0000E+00  0.4000E+01
 -14.680  0.0000E+00  0.4000E+01
 -14.670  0.0000E+00  0.4000E+01
 -14.660  0.0000E+00  0.4000E+01
 -14.650  0.0000E+00  0.4000E+01
 -14.640  0.0000E+00  0.4000E+01
 -14.630  0.0000E+00  0.4000E+01
 -14.620  0.0000E+00  0.4000E+01
 -14.610  0.0000E+00  0.4000E+01
 -14.600  0.0000E+00  0.4000E+01
 -14.590  0.0000E+00  0.4000E+01
 -14.580  0.0000E+00  0.4000E+01
 -14.570  0.0000E+00  0.4000E+01
 -14.560  0.0000E+00  0.4000E+01
 -14.550  0.0000E+00  0.4000E+01
 -14.540  0.0000E+00  0.4000E+01
 -14.530  0.0000E+00  0.4000E+01
 -14.520  0.0000E+00  0.4000E+01
 -14.510  0.0000E+00  0.4000E+01
 -14.500  0.0000E+00  0.4000E+01
 -14.490  0.0000E+00  0.4000E+01
 -14.480  0.0000E+00  0.4000E+01
 -14.470  0.0000E+00  0.4000E+01
 -14.460  0.0000E+00  0.4000E+01
 -14.450  0.0000E+00  0.4000E+01
 -14.440  0.0000E+00  0.4000E+01
 -14.430  0.0000E+00  0.4000E+01
 -14.420  0.0000E+00  0.4000E+01
 -14.410  0.0000E+00  0.4000E+01
 -14.400  0.0000E+00  0.4000E+01
 -14.390  0.0000E+00  0.4000E+01
 -14.380  0.0000E+00  0.4000E+01
 -14.370  0.0000E+00  0.4000E+01
 -14.360  0.0000E+00  0.4000E+01
 -14.350  0.0000E+00  0.4000E+01
 -14.340  0.0000E+00  0.4000E+01
 -14.330  0.0000E+00  0.4000E+01
 -14.320  0.0000E+00  0.4000E+01
 -14.310  0.0000E+00  0.4000E+01
 -14.300  0.0000E+00  0.4000E+01
 -14.290  0.0000E+00  0.4000E+01
 -14.280  0.0000E+00  0.4000E+01
 -14.270  0.0000E+00  0.4000E+01
 -14.260  0.0000E+00  0.4000E+01
 -14.250  0.0000E+00  0.4000E+01
 -14.240  0.0000E+00  0.4000E+01
 -14.230  0.0000E+00  0.4000E+01
 -14.220  0.0000E+00  0.4000E+01
 -14.210  0.0000E+00  0.4000E+01
 -14.200  0.0000E+00  0.4000E+01
 -14.190  0.0000E+00  0.4000E+01
 -14.180  0.0000E+00  0.4000E+01
 -14.170  0.0000E+00  0.4000E+01
 -14.160  0.0000E+00  0.4000E+01
 -14.150  0.0000E+00  0.4000E+01
 -14.140  0.0000E+00  0.4000E+01
 -14.130  0.0000E+00  0.4000E+01
 -14.120  0.0000E+00  0.4000E+01
 -14.110  0.0000E+00  0.4000E+01
 -14.100  0.0000E+00  0.4000E+01
 -14.090  0.0000E+00  0.4000E+01
 -14.080  0.0000E+00  0.4000E+01
 -14.070  0.0000E+00  0.4000E+01
 -14.060  0.0000E+00  0.4000E+01
 -14.050  0.0000E+00  0.4000E+01
 -14.040  0.0000E+00  0.4000E+01
 -14.030  0.0000E+00  0.4000E+01
 -14.020  0.0000E+00  0.4000E+01
 -14.010  0.0000E+00  0.4000E+01
 -14.000  0.0000E+00  0.4000E+01
 -13.990  0.0000E+00  0.4000E+01
 -13.980  0.0000E+00  0.4000E+01
 -13.970  0.0000E+00  0.4000E+01
 -13.960  0.0000E+00  0.4000E+01
 -13.950  0.0000E+00  0.4000E+01
 -13.940  0.0000E+00  0.4000E+01
 -13.930  0.0000E+00  0.4000E+01
 -13.920  0.0000E+00  0.4000E+01
 -13.910  0.0000E+00  0.4000E+01
 -13.900  0.0000E+00  0.4000E+01
 -13.890  0.0000E+00  0.4000E+01
 -13.880  0.0000E+00  0.4000E+01
 -13.870  0.0000E+00  0.4000E+01
 -13.860  0.0000E+00  0.4000E+01
 -13.850  0.0000E+00  0.4000E+01
 -13.840  0.0000E+00  0.4000E+01
 -13.830  0.0000E+00  0.4000E+01
 -13.820  0.0000E+00  0.4000E+01
 -13.810  0.0000E+00  0.4000E+01
 -13.800  0.0000E+00  0.4000E+01
 -13.790  0.0000E+00  0.4000E+01
 -13.780  0.0000E+00  0.4000E+01
 -13.770  0.0000E+00  0.4000E+01
 -13.760  0.0000E+00  0.4000E+01
 -13.750  0.0000E+00  0.4000E+01
 -13.740  0.0000E+00  0.4000E+01
 -13.730  0.0000E+00  0.4000E+01
 -13.720  0.0000E+00  0.4000E+01
 -13.710  0.0000E+00  0.4000E+01
 -13.700  0.0000E+00  0.4000E+01
 -13.690  0.0000E+00  0.4000E+01
 -13.680  0.0000E+00  0.4000E+01
 -13.670  0.0000E+00  0.4000E+01
 -13.660  0.0000E+00  0.4000E+01
 -13.650  0.0000E+00  0.4000E+01
 -13.640  0.0000E+00  0.4000E+01
 -13.630  0.0000E+00  0.4000E+01
 -13.620  0.0000E+00  0.4000E+01
 -13.610  0.0000E+00  0.4000E+01
 -13.600  0.0000E+00  0.4000E+01
 -13.590  0.0000E+00  0.4000E+01
 -13.580  0.0000E+00  0.4000E+01
 -13.570  0.0000E+00  0.4000E+01
 -13.560  0.0000E+00  0.4000E+01
 -13.550  0.0000E+00  0.4000E+01
 -13.540  0.0000E+00  0.4000E+01
 -13.530  0.0000E+00  0.4000E+01
 -13.520  0.0000E+00  0.4000E+01
 -13.510  0.0000E+00  0.4000E+01
 -13.500  0.0000E+00  0.4000E+01
 -13.490  0.0000E+00  0.4000E+01
 -13.480  0.0000E+00  0.4000E+01
 -13.470  0.0000E+00  0.4000E+01
 -13.460  0.0000E+00  0.4000E+01
 -13.450  0.0000E+00  0.4000E+01
 -13.440  0.0000E+00  0.4000E+01
 -13.430  0.0000E+00  0.4000E+01
 -13.420  0.0000E+00  0.4000E+01
 -13.410  0.0000E+00  0.4000E+01
 -13.400  0.0000E+00  0.4000E+01
 -13.390  0.0000E+00  0.4000E+01
 -13.380  0.0000E+00  0.4000E+01
 -13.370  0.0000E+00  0.4000E+01
 -13.360  0.0000E+00  0.4000E+01
 -13.350  0.0000E+00  0.4000E+01
 -13.340  0.0000E+00  0.4000E+01
 -13.330  0.0000E+00  0.4000E+01
 -13.320  0.0000E+00  0.4000E+01
 -13.310  0.0000E+00  0.4000E+01
 -13.300  0.0000E+00  0.4000E+01
 -13.290  0.0000E+00  0.4000E+01
 -13.280  0.0000E+00  0.4000E+01
 -13.270  0.0000E+00  0.4000E+01
 -13.260  0.0000E+00  0.4000E+01
 -13.250  0.0000E+00  0.4000E+01
 -13.240  0.0000E+00  0.4000E+01
 -13.230  0.0000E+00  0.4000E+01
 -13.220  0.0000E+00  0.4000E+01
 -13.210  0.0000E+00  0.4000E+01
 -13.200  0.0000E+00  0.4000E+01
 -13.190  0.0000E+00  0.4000E+01
 -13.180  0.0000E+00  0.4000E+01
 -13.170  0.0000E+00  0.4000E+01
 -13.160  0.0000E+00  0.4000E+01
 -13.150  0.0000E+00  0.4000E+01
 -13.140  0.0000E+00  0.4000E+01
 -13.130  0.0000E+00  0.4000E+01
 -13.120  0.0000E+00  0.4000E+01
 -13.110  0.0000E+00  0.4000E+01
 -13.100  0.0000E+00  0.4000E+01
 -13.090  0.0000E+00  0.4000E+01
 -13.080  0.0000E+00  0.4000E+01
 -13.070  0.0000E+00  0.4000E+01
 -13.060  0.0000E+00  0.4000E+01
 -13.050  0.0000E+00  0.4000E+01
 -13.040  0.0000E+00  0.4000E+01
 -13.030  0.0000E+00  0.4000E+01
 -13.020  0.0000E+00  0.4000E+01
 -13.010  0.0000E+00  0.4000E+01
 -13.000  0.0000E+00  0.4000E+01
 -12.990  0.0000E+00  0.4000E+01
 -12.980  0.0000E+00  0.4000E+01
 -12.970  0.0000E+00  0.4000E+01
 -12.960  0.0000E+00  0.4000E+01
 -12.950  0.0000E+00  0.4000E+01
 -12.940  0.0000E+00  0.4000E+01
 -12.930  0.0000E+00  0.4000E+01
 -12.920  0.0000E+00  0.4000E+01
 -12.910  0.0000E+00  0.4000E+01
 -12.900  0.0000E+00  0.4000E+01
 -12.890  0.0000E+00  0.4000E+01
 -12.880  0.0000E+00  0.4000E+01
 -12.870  0.0000E+00  0.4000E+01
 -12.860  0.0000E+00  0.4000E+01
 -12.850  0.0000E+00  0.4000E+01
 -12.840  0.0000E+00  0.4000E+01
 -12.830  0.0000E+00  0.4000E+01
 -12.820  0.0000E+00  0.4000E+01
 -12.810  0.0000E+00  0.4000E+01
 -12.800  0.0000E+00  0.4000E+01
 -12.790  0.0000E+00  0.4000E+01
 -12.780  0.0000E+00  0.4000E+01
 -12.770  0.0000E+00  0.4000E+01
 -12.760  0.0000E+00  0.4000E+01
 -12.750  0.0000E+00  0.4000E+01
 -12.740  0.0000E+00  0.4000E+01
 -12.730  0.0000E+00  0.4000E+01
 -12.720  0.0000E+00  0.4000E+01
 -12.710  0.0000E+00  0.4000E+01
 -12.700  0.0000E+00  0.4000E+01
 -12.690  0.0000E+00  0.4000E+01
 -12.680  0.0000E+00  0.4000E+01
 -12.670  0.0000E+00  0.4000E+01
 -12.660  0.0000E+00  0.4000E+01
 -12.650  0.0000E+00  0.4000E+01
 -12.640  0.0000E+00  0.4000E+01
 -12.630  0.0000E+00  0.4000E+01
 -12.620  0.0000E+00  0.4000E+01
 -12.610  0.0000E+00  0.4000E+01
 -12.600  0.0000E+00  0.4000E+01
 -12.590  0.0000E+00  0.4000E+01
 -12.580  0.0000E+00  0.4000E+01
 -12.570  0.0000E+00  0.4000E+01
 -12.560  0.0000E+00  0.4000E+01
 -12.550  0.0000E+00  0.4000E+01
 -12.540  0.0000E+00  0.4000E+01
 -12.530  0.0000E+00  0.4000E+01
 -12.520  0.0000E+00  0.4000E+01
 -12.510  0.0000E+00  0.4000E+01
 -12.500  0.0000E+00  0.4000E+01
 -12.490  0.0000E+00  0.4000E+01
 -12.480  0.0000E+00  0.4000E+01
 -12.470  0.0000E+00  0.4000E+01
 -12.460  0.0000E+00  0.4000E+01
 -12.450  0.0000E+00  0.4000E+01
 -12.440  0.0000E+00  0.4000E+01
 -12.430  0.0000E+00  0.4000E+01
 -12.420  0.0000E+00  0.4000E+01
 -12.410  0.0000E+00  0.4000E+01
 -12.400  0.0000E+00  0.4000E+01
 -12.390  0.0000E+00  0.4000E+01
 -12.380  0.0000E+00  0.4000E+01
 -12.370  0.0000E+00  0.4000E+01
 -12.360  0.0000E+00  0.4000E+01
 -12.350  0.0000E+00  0.4000E+01
 -12.340  0.0000E+00  0.4000E+01
 -12.330  0.0000E+00  0.4000E+01
 -12.320  0.0000E+00  0.4000E+01
 -12.310  0.0000E+00  0.4000E+01
 -12.300  0.0000E+00  0.4000E+01
 -12.290  0.0000E+00  0.4000E+01
 -12.280  0.0000E+00  0.4000E+01
 -12.270  0.0000E+00  0.4000E+01
 -12.260  0.0000E+00  0.4000E+01
 -12.250  0.0000E+00  0.4000E+01
 -12.240  0.0000E+00  0.4000E+01
 -12.230  0.0000E+00  0.4000E+01
 -12.220  0.0000E+00  0.4000E+01
 -12.210  0.0000E+00  0.4000E+01
 -12.200  0.0000E+00  0.4000E+01
 -12.190  0.0000E+00  0.4000E+01
 -12.180  0.0000E+00  0.4000E+01
 -12.170  0.0000E+00  0.4000E+01
 -12.160  0.0000E+00  0.4000E+01
 -12.150  0.0000E+00  0.4000E+01
 -12.140  0.0000E+00  0.4000E+01
 -12.130  0.0000E+00  0.4000E+01
 -12.120  0.0000E+00  0.4000E+01
 -12.110  0.0000E+00  0.4000E+01
 -12.100  0.0000E+00  0.4000E+01
 -12.090  0.0000E+00  0.4000E+01
 -12.080  0.0000E+00  0.4000E+01
 -12.070  0.0000E+00  0.4000E+01
 -12.060  0.0000E+00  0.4000E+01
 -12.050  0.0000E+00  0.4000E+01
 -12.040  0.0000E+00  0.4000E+01
 -12.030  0.0000E+00  0.4000E+01
 -12.020  0.0000E+00  0.4000E+01
 -12.010  0.0000E+00  0.4000E+01
 -12.000  0.0000E+00  0.4000E+01
 -11.990  0.0000E+00  0.4000E+01
 -11.980  0.0000E+00  0.4000E+01
 -11.970  0.0000E+00  0.4000E+01
 -11.960  0.0000E+00  0.4000E+01
 -11.950  0.0000E+00  0.4000E+01
 -11.940  0.0000E+00  0.4000E+01
 -11.930  0.0000E+00  0.4000E+01
 -11.920  0.0000E+00  0.4000E+01
 -11.910  0.0000E+00  0.4000E+01
 -11.900  0.0000E+00  0.4000E+01
 -11.890  0.0000E+00  0.4000E+01
 -11.880  0.0000E+00  0.4000E+01
 -11.870  0.0000E+00  0.4000E+01
 -11.860  0.0000E+00  0.4000E+01
 -11.850  0.0000E+00  0.4000E+01
 -11.840  0.0000E+00  0.4000E+01
 -11.830  0.0000E+00  0.4000E+01
 -11.820  0.0000E+00  0.4000E+01
 -11.810  0.0000E+00  0.4000E+01
 -11.800  0.0000E+00  0.4000E+01
 -11.790  0.0000E+00  0.4000E+01
 -11.780  0.0000E+00  0.4000E+01
 -11.770  0.0000E+00  0.4000E+01
 -11.760  0.0000E+00  0.4000E+01
 -11.750  0.0000E+00  0.4000E+01
 -11.740  0.0000E+00  0.4000E+01
 -11.730  0.0000E+00  0.4000E+01
 -11.720  0.0000E+00  0.4000E+01
 -11.710  0.0000E+00  0.4000E+01
 -11.700  0.0000E+00  0.4000E+01
 -11.690  0.0000E+00  0.4000E+01
 -11.680  0.0000E+00  0.4000E+01
 -11.670  0.0000E+00  0.4000E+01
 -11.660  0.0000E+00  0.4000E+01
 -11.650  0.0000E+00  0.4000E+01
 -11.640  0.0000E+00  0.4000E+01
 -11.630  0.0000E+00  0.4000E+01
 -11.620  0.0000E+00  0.4000E+01
 -11.610  0.0000E+00  0.4000E+01
 -11.600  0.0000E+00  0.4000E+01
 -11.590  0.0000E+00  0.4000E+01
 -11.580  0.0000E+00  0.4000E+01
 -11.570  0.0000E+00  0.4000E+01
 -11.560  0.0000E+00  0.4000E+01
 -11.550  0.0000E+00  0.4000E+01
 -11.540  0.0000E+00  0.4000E+01
 -11.530  0.0000E+00  0.4000E+01
 -11.520  0.0000E+00  0.4000E+01
 -11.510  0.0000E+00  0.4000E+01
 -11.500  0.0000E+00  0.4000E+01
 -11.490  0.0000E+00  0.4000E+01
 -11.480  0.0000E+00  0.4000E+01
 -11.470  0.0000E+00  0.4000E+01
 -11.460  0.0000E+00  0.4000E+01
 -11.450  0.0000E+00  0.4000E+01
 -11.440  0.0000E+00  0.4000E+01
 -11.430  0.0000E+00  0.4000E+01
 -11.420  0.0000E+00  0.4000E+01
 -11.410  0.0000E+00  0.4000E+01
 -11.400  0.0000E+00  0.4000E+01
 -11.390  0.0000E+00  0.4000E+01
 -11.380  0.0000E+00  0.4000E+01
 -11.370  0.0000E+00  0.4000E+01
 -11.360  0.0000E+00  0.4000E+01
 -11.350  0.0000E+00  0.4000E+01
 -11.340  0.0000E+00  0.4000E+01
 -11.330  0.0000E+00  0.4000E+01
 -11.320  0.0000E+00  0.4000E+01
 -11.310  0.0000E+00  0.4000E+01
 -11.300  0.0000E+00  0.4000E+01
 -11.290  0.0000E+00  0.4000E+01
 -11.280  0.0000E+00  0.4000E+01
 -11.270  0.0000E+00  0.4000E+01
 -11.260  0.0000E+00  0.4000E+01
 -11.250  0.0000E+00  0.4000E+01
 -11.240  0.0000E+00  0.4000E+01
 -11.230  0.0000E+00  0.4000E+01
 -11.220  0.0000E+00  0.4000E+01
 -11.210  0.0000E+00  0.4000E+01
 -11.200  0.0000E+00  0.4000E+01
 -11.190  0.0000E+00  0.4000E+01
 -11.180  0.0000E+00  0.4000E+01
 -11.170  0.0000E+00  0.4000E+01
 -11.160  0.0000E+00  0.4000E+01
 -11.150  0.0000E+00  0.4000E+01
 -11.140  0.0000E+00  0.4000E+01
 -11.130  0.0000E+00  0.4000E+01
 -11.120  0.0000E+00  0.4000E+01
 -11.110  0.0000E+00  0.4000E+01
 -11.100  0.0000E+00  0.4000E+01
 -11.090  0.0000E+00  0.4000E+01
 -11.080  0.0000E+00  0.4000E+01
 -11.070  0.0000E+00  0.4000E+01
 -11.060  0.0000E+00  0.4000E+01
 -11.050  0.0000E+00  0.4000E+01
 -11.040  0.0000E+00  0.4000E+01
 -11.030  0.0000E+00  0.4000E+01
 -11.020  0.0000E+00  0.4000E+01
 -11.010  0.0000E+00  0.4000E+01
 -11.000  0.0000E+00  0.4000E+01
 -10.990  0.0000E+00  0.4000E+01
 -10.980  0.0000E+00  0.4000E+01
 -10.970  0.0000E+00  0.4000E+01
 -10.960  0.0000E+00  0.4000E+01
 -10.950  0.0000E+00  0.4000E+01
 -10.940  0.0000E+00  0.4000E+01
 -10.930  0.0000E+00  0.4000E+01
 -10.920  0.0000E+00  0.4000E+01
 -10.910  0.0000E+00  0.4000E+01
 -10.900  0.0000E+00  0.4000E+01
 -10.890  0.0000E+00  0.4000E+01
 -10.880  0.0000E+00  0.4000E+01
 -10.870  0.0000E+00  0.4000E+01
 -10.860  0.0000E+00  0.4000E+01
 -10.850  0.0000E+00  0.4000E+01
 -10.840  0.0000E+00  0.4000E+01
 -10.830  0.0000E+00  0.4000E+01
 -10.820  0.0000E+00  0.4000E+01
 -10.810  0.0000E+00  0.4000E+01
 -10.800  0.0000E+00  0.4000E+01
 -10.790  0.0000E+00  0.4000E+01
 -10.780  0.0000E+00  0.4000E+01
 -10.770  0.0000E+00  0.4000E+01
 -10.760  0.0000E+00  0.4000E+01
 -10.750  0.0000E+00  0.4000E+01
 -10.740  0.0000E+00  0.4000E+01
 -10.730  0.0000E+00  0.4000E+01
 -10.720  0.0000E+00  0.4000E+01
 -10.710  0.0000E+00  0.4000E+01
 -10.700  0.0000E+00  0.4000E+01
 -10.690  0.0000E+00  0.4000E+01
 -10.680  0.0000E+00  0.4000E+01
 -10.670  0.0000E+00  0.4000E+01
 -10.660  0.0000E+00  0.4000E+01
 -10.650  0.0000E+00  0.4000E+01
 -10.640  0.0000E+00  0.4000E+01
 -10.630  0.0000E+00  0.4000E+01
 -10.620  0.0000E+00  0.4000E+01
 -10.610  0.0000E+00  0.4000E+01
 -10.600  0.0000E+00  0.4000E+01
 -10.590  0.0000E+00  0.4000E+01
 -10.580  0.0000E+00  0.4000E+01
 -10.570  0.0000E+00  0.4000E+01
 -10.560  0.0000E+00  0.4000E+01
 -10.550  0.0000E+00  0.4000E+01
 -10.540  0.0000E+00  0.4000E+01
 -10.530  0.0000E+00  0.4000E+01
 -10.520  0.0000E+00  0.4000E+01
 -10.510  0.0000E+00  0.4000E+01
 -10.500  0.0000E+00  0.4000E+01
 -10.490  0.0000E+00  0.4000E+01
 -10.480  0.0000E+00  0.4000E+01
 -10.470  0.0000E+00  0.4000E+01
 -10.460  0.0000E+00  0.4000E+01
 -10.450  0.0000E+00  0.4000E+01
 -10.440  0.0000E+00  0.4000E+01
 -10.430  0.0000E+00  0.4000E+01
 -10.420  0.0000E+00  0.4000E+01
 -10.410  0.0000E+00  0.4000E+01
 -10.400  0.0000E+00  0.4000E+01
 -10.390  0.0000E+00  0.4000E+01
 -10.380  0.0000E+00  0.4000E+01
 -10.370  0.0000E+00  0.4000E+01
 -10.360  0.0000E+00  0.4000E+01
 -10.350  0.0000E+00  0.4000E+01
 -10.340  0.0000E+00  0.4000E+01
 -10.330  0.0000E+00  0.4000E+01
 -10.320  0.0000E+00  0.4000E+01
 -10.310  0.4431E+00  0.4001E+01
 -10.300  0.1070E+01  0.4012E+01
 -10.290  0.1086E+01  0.4024E+01
 -10.280  0.1198E+01  0.4035E+01
 -10.270  0.1151E+01  0.4047E+01
 -10.260  0.1188E+01  0.4059E+01
 -10.250  0.1184E+01  0.4071E+01
 -10.240  0.1141E+01  0.4082E+01
 -10.230  0.1212E+01  0.4094E+01
 -10.220  0.1239E+01  0.4106E+01
 -10.210  0.1191E+01  0.4119E+01
 -10.200  0.1163E+01  0.4130E+01
 -10.190  0.1210E+01  0.4142E+01
 -10.180  0.1269E+01  0.4155E+01
 -10.170  0.1234E+01  0.4167E+01
 -10.160  0.1220E+01  0.4180E+01
 -10.150  0.1218E+01  0.4192E+01
 -10.140  0.1236E+01  0.4204E+01
 -10.130  0.1281E+01  0.4217E+01
 -10.120  0.1295E+01  0.4229E+01
 -10.110  0.1252E+01  0.4242E+01
 -10.100  0.1267E+01  0.4255E+01
 -10.090  0.1274E+01  0.4268E+01
 -10.080  0.1283E+01  0.4280E+01
 -10.070  0.1326E+01  0.4293E+01
 -10.060  0.1333E+01  0.4307E+01
 -10.050  0.1327E+01  0.4320E+01
 -10.040  0.1853E+01  0.4335E+01
 -10.030  0.2415E+01  0.4359E+01
 -10.020  0.2539E+01  0.4384E+01
 -10.010  0.2432E+01  0.4410E+01
 -10.000  0.2528E+01  0.4435E+01
  -9.990  0.2604E+01  0.4460E+01
  -9.980  0.2526E+01  0.4487E+01
  -9.970  0.2533E+01  0.4512E+01
  -9.960  0.2639E+01  0.4538E+01
  -9.950  0.2673E+01  0.4564E+01
  -9.940  0.2619E+01  0.4591E+01
  -9.930  0.2641E+01  0.4617E+01
  -9.920  0.2722E+01  0.4644E+01
  -9.910  0.2730E+01  0.4671E+01
  -9.900  0.2753E+01  0.4699E+01
  -9.890  0.2753E+01  0.4726E+01
  -9.880  0.2766E+01  0.4754E+01
  -9.870  0.2839E+01  0.4782E+01
  -9.860  0.2866E+01  0.4810E+01
  -9.850  0.2908E+01  0.4839E+01
  -9.840  0.2952E+01  0.4868E+01
  -9.830  0.2942E+01  0.4898E+01
  -9.820  0.3011E+01  0.4928E+01
  -9.810  0.3050E+01  0.4958E+01
  -9.800  0.3096E+01  0.4989E+01
  -9.790  0.3189E+01  0.5020E+01
  -9.780  0.3272E+01  0.5052E+01
  -9.770  0.3358E+01  0.5086E+01
  -9.760  0.3485E+01  0.5120E+01
  -9.750  0.3556E+01  0.5155E+01
  -9.740  0.3824E+01  0.5192E+01
  -9.730  0.4366E+01  0.5232E+01
  -9.720  0.4357E+01  0.5279E+01
  -9.710  0.3924E+01  0.5320E+01
  -9.700  0.3610E+01  0.5358E+01
  -9.690  0.3451E+01  0.5393E+01
  -9.680  0.3298E+01  0.5427E+01
  -9.670  0.3225E+01  0.5459E+01
  -9.660  0.3156E+01  0.5491E+01
  -9.650  0.3087E+01  0.5522E+01
  -9.640  0.3066E+01  0.5553E+01
  -9.630  0.3059E+01  0.5584E+01
  -9.620  0.2971E+01  0.5614E+01
  -9.610  0.2936E+01  0.5643E+01
  -9.600  0.2939E+01  0.5673E+01
  -9.590  0.2924E+01  0.5702E+01
  -9.580  0.2893E+01  0.5731E+01
  -9.570  0.2911E+01  0.5760E+01
  -9.560  0.2918E+01  0.5789E+01
  -9.550  0.2904E+01  0.5819E+01
  -9.540  0.2901E+01  0.5847E+01
  -9.530  0.2937E+01  0.5877E+01
  -9.520  0.2964E+01  0.5906E+01
  -9.510  0.3029E+01  0.5936E+01
  -9.500  0.3134E+01  0.5967E+01
  -9.490  0.3159E+01  0.5998E+01
  -9.480  0.3315E+01  0.6031E+01
  -9.470  0.4141E+01  0.6067E+01
  -9.460  0.4536E+01  0.6114E+01
  -9.450  0.3889E+01  0.6156E+01
  -9.440  0.3628E+01  0.6194E+01
  -9.430  0.3419E+01  0.6230E+01
  -9.420  0.3383E+01  0.6264E+01
  -9.410  0.3230E+01  0.6296E+01
  -9.400  0.3130E+01  0.6328E+01
  -9.390  0.3050E+01  0.6359E+01
  -9.380  0.2957E+01  0.6389E+01
  -9.370  0.2906E+01  0.6418E+01
  -9.360  0.2831E+01  0.6447E+01
  -9.350  0.2828E+01  0.6475E+01
  -9.340  0.2754E+01  0.6503E+01
  -9.330  0.2721E+01  0.6531E+01
  -9.320  0.2687E+01  0.6558E+01
  -9.310  0.2612E+01  0.6584E+01
  -9.300  0.2592E+01  0.6610E+01
  -9.290  0.2589E+01  0.6636E+01
  -9.280  0.2551E+01  0.6662E+01
  -9.270  0.2559E+01  0.6687E+01
  -9.260  0.2549E+01  0.6713E+01
  -9.250  0.2554E+01  0.6738E+01
  -9.240  0.2566E+01  0.6764E+01
  -9.230  0.2582E+01  0.6790E+01
  -9.220  0.2620E+01  0.6815E+01
  -9.210  0.2688E+01  0.6842E+01
  -9.200  0.2727E+01  0.6869E+01
  -9.190  0.2763E+01  0.6897E+01
  -9.180  0.2884E+01  0.6925E+01
  -9.170  0.2983E+01  0.6954E+01
  -9.160  0.3079E+01  0.6984E+01
  -9.150  0.3103E+01  0.7015E+01
  -9.140  0.3371E+01  0.7047E+01
  -9.130  0.3886E+01  0.7083E+01
  -9.120  0.5239E+01  0.7128E+01
  -9.110  0.5996E+01  0.7188E+01
  -9.100  0.4414E+01  0.7243E+01
  -9.090  0.7283E+00  0.7269E+01
  -9.080  0.7262E+00  0.7276E+01
  -9.070  0.7297E+00  0.7284E+01
  -9.060  0.7317E+00  0.7291E+01
  -9.050  0.7336E+00  0.7298E+01
  -9.040  0.7355E+00  0.7306E+01
  -9.030  0.6883E+00  0.7313E+01
  -9.020  0.6868E+00  0.7320E+01
  -9.010  0.6854E+00  0.7326E+01
  -9.000  0.6866E+00  0.7333E+01
  -8.990  0.6879E+00  0.7340E+01
  -8.980  0.7173E+00  0.7347E+01
  -8.970  0.7589E+00  0.7355E+01
  -8.960  0.7622E+00  0.7362E+01
  -8.950  0.7654E+00  0.7370E+01
  -8.940  0.7651E+00  0.7378E+01
  -8.930  0.7869E+00  0.7385E+01
  -8.920  0.7797E+00  0.7393E+01
  -8.910  0.7742E+00  0.7401E+01
  -8.900  0.7731E+00  0.7409E+01
  -8.890  0.7850E+00  0.7416E+01
  -8.880  0.8055E+00  0.7424E+01
  -8.870  0.8266E+00  0.7433E+01
  -8.860  0.7961E+00  0.7441E+01
  -8.850  0.8058E+00  0.7449E+01
  -8.840  0.8154E+00  0.7457E+01
  -8.830  0.8247E+00  0.7465E+01
  -8.820  0.8358E+00  0.7473E+01
  -8.810  0.8435E+00  0.7482E+01
  -8.800  0.8418E+00  0.7490E+01
  -8.790  0.8557E+00  0.7499E+01
  -8.780  0.8605E+00  0.7507E+01
  -8.770  0.8702E+00  0.7516E+01
  -8.760  0.8815E+00  0.7525E+01
  -8.750  0.8740E+00  0.7534E+01
  -8.740  0.8683E+00  0.7542E+01
  -8.730  0.8701E+00  0.7551E+01
  -8.720  0.8818E+00  0.7560E+01
  -8.710  0.8954E+00  0.7569E+01
  -8.700  0.9090E+00  0.7578E+01
  -8.690  0.9218E+00  0.7587E+01
  -8.680  0.9262E+00  0.7596E+01
  -8.670  0.9306E+00  0.7605E+01
  -8.660  0.9320E+00  0.7615E+01
  -8.650  0.9410E+00  0.7624E+01
  -8.640  0.9413E+00  0.7633E+01
  -8.630  0.9486E+00  0.7643E+01
  -8.620  0.9505E+00  0.7652E+01
  -8.610  0.9524E+00  0.7662E+01
  -8.600  0.9552E+00  0.7671E+01
  -8.590  0.9579E+00  0.7681E+01
  -8.580  0.9739E+00  0.7691E+01
  -8.570  0.9917E+00  0.7700E+01
  -8.560  0.9996E+00  0.7710E+01
  -8.550  0.1009E+01  0.7720E+01
  -8.540  0.1015E+01  0.7731E+01
  -8.530  0.1015E+01  0.7741E+01
  -8.520  0.1012E+01  0.7751E+01
  -8.510  0.1012E+01  0.7761E+01
  -8.500  0.1024E+01  0.7771E+01
  -8.490  0.1035E+01  0.7781E+01
  -8.480  0.1043E+01  0.7792E+01
  -8.470  0.1049E+01  0.7802E+01
  -8.460  0.1055E+01  0.7813E+01
  -8.450  0.1061E+01  0.7823E+01
  -8.440  0.1067E+01  0.7834E+01
  -8.430  0.1078E+01  0.7845E+01
  -8.420  0.1089E+01  0.7856E+01
  -8.410  0.1094E+01  0.7866E+01
  -8.400  0.1099E+01  0.7877E+01
  -8.390  0.1103E+01  0.7888E+01
  -8.380  0.1108E+01  0.7900E+01
  -8.370  0.1111E+01  0.7911E+01
  -8.360  0.1120E+01  0.7922E+01
  -8.350  0.1131E+01  0.7933E+01
  -8.340  0.1143E+01  0.7944E+01
  -8.330  0.1155E+01  0.7956E+01
  -8.320  0.1165E+01  0.7967E+01
  -8.310  0.1161E+01  0.7979E+01
  -8.300  0.1159E+01  0.7991E+01
  -8.290  0.1173E+01  0.8002E+01
  -8.280  0.1178E+01  0.8014E+01
  -8.270  0.1194E+01  0.8026E+01
  -8.260  0.1202E+01  0.8038E+01
  -8.250  0.1209E+01  0.8050E+01
  -8.240  0.1216E+01  0.8062E+01
  -8.230  0.1224E+01  0.8074E+01
  -8.220  0.1236E+01  0.8087E+01
  -8.210  0.1246E+01  0.8099E+01
  -8.200  0.1261E+01  0.8112E+01
  -8.190  0.1259E+01  0.8124E+01
  -8.180  0.1263E+01  0.8137E+01
  -8.170  0.1267E+01  0.8149E+01
  -8.160  0.1271E+01  0.8162E+01
  -8.150  0.1286E+01  0.8175E+01
  -8.140  0.1295E+01  0.8188E+01
  -8.130  0.1308E+01  0.8201E+01
  -8.120  0.1323E+01  0.8214E+01
  -8.110  0.1336E+01  0.8227E+01
  -8.100  0.1347E+01  0.8241E+01
  -8.090  0.1356E+01  0.8254E+01
  -8.080  0.1362E+01  0.8268E+01
  -8.070  0.1367E+01  0.8281E+01
  -8.060  0.1370E+01  0.8295E+01
  -8.050  0.1382E+01  0.8309E+01
  -8.040  0.1392E+01  0.8323E+01
  -8.030  0.1400E+01  0.8337E+01
  -8.020  0.1410E+01  0.8351E+01
  -8.010  0.1426E+01  0.8365E+01
  -8.000  0.1441E+01  0.8379E+01
  -7.990  0.1453E+01  0.8394E+01
  -7.980  0.1471E+01  0.8408E+01
  -7.970  0.1482E+01  0.8423E+01
  -7.960  0.1489E+01  0.8438E+01
  -7.950  0.1491E+01  0.8453E+01
  -7.940  0.1508E+01  0.8468E+01
  -7.930  0.2674E+01  0.8486E+01
  -7.920  0.3901E+01  0.8521E+01
  -7.910  0.3769E+01  0.8559E+01
  -7.900  0.4303E+01  0.8601E+01
  -7.890  0.4392E+01  0.8644E+01
  -7.880  0.5642E+01  0.8694E+01
  -7.870  0.4603E+01  0.8744E+01
  -7.860  0.4063E+01  0.8788E+01
  -7.850  0.3722E+01  0.8826E+01
  -7.840  0.3597E+01  0.8863E+01
  -7.830  0.3494E+01  0.8898E+01
  -7.820  0.3445E+01  0.8933E+01
  -7.810  0.3403E+01  0.8967E+01
  -7.800  0.3288E+01  0.9001E+01
  -7.790  0.3254E+01  0.9033E+01
  -7.780  0.3232E+01  0.9066E+01
  -7.770  0.3218E+01  0.9098E+01
  -7.760  0.3198E+01  0.9130E+01
  -7.750  0.3187E+01  0.9162E+01
  -7.740  0.3190E+01  0.9194E+01
  -7.730  0.3162E+01  0.9226E+01
  -7.720  0.3154E+01  0.9257E+01
  -7.710  0.3152E+01  0.9289E+01
  -7.700  0.3163E+01  0.9320E+01
  -7.690  0.3171E+01  0.9352E+01
  -7.680  0.3193E+01  0.9384E+01
  -7.670  0.3218E+01  0.9416E+01
  -7.660  0.3239E+01  0.9448E+01
  -7.650  0.3261E+01  0.9481E+01
  -7.640  0.3336E+01  0.9514E+01
  -7.630  0.3442E+01  0.9548E+01
  -7.620  0.3498E+01  0.9582E+01
  -7.610  0.3550E+01  0.9618E+01
  -7.600  0.3572E+01  0.9653E+01
  -7.590  0.3595E+01  0.9689E+01
  -7.580  0.3658E+01  0.9725E+01
  -7.570  0.3713E+01  0.9762E+01
  -7.560  0.3440E+01  0.9798E+01
  -7.550  0.3261E+01  0.9832E+01
  -7.540  0.3149E+01  0.9864E+01
  -7.530  0.3158E+01  0.9895E+01
  -7.520  0.3107E+01  0.9927E+01
  -7.510  0.3195E+01  0.9958E+01
  -7.500  0.3065E+01  0.9990E+01
  -7.490  0.2995E+01  0.1002E+02
  -7.480  0.2973E+01  0.1005E+02
  -7.470  0.2992E+01  0.1008E+02
  -7.460  0.3261E+01  0.1011E+02
  -7.450  0.3601E+01  0.1014E+02
  -7.440  0.3623E+01  0.1018E+02
  -7.430  0.3619E+01  0.1022E+02
  -7.420  0.3736E+01  0.1026E+02
  -7.410  0.4317E+01  0.1029E+02
  -7.400  0.4710E+01  0.1034E+02
  -7.390  0.4822E+01  0.1039E+02
  -7.380  0.4906E+01  0.1044E+02
  -7.370  0.5049E+01  0.1049E+02
  -7.360  0.5238E+01  0.1054E+02
  -7.350  0.5450E+01  0.1059E+02
  -7.340  0.5943E+01  0.1065E+02
  -7.330  0.7050E+01  0.1071E+02
  -7.320  0.4190E+01  0.1077E+02
  -7.310  0.4320E+01  0.1082E+02
  -7.300  0.4472E+01  0.1086E+02
  -7.290  0.4728E+01  0.1091E+02
  -7.280  0.4954E+01  0.1095E+02
  -7.270  0.5330E+01  0.1101E+02
  -7.260  0.5506E+01  0.1106E+02
  -7.250  0.6109E+01  0.1112E+02
  -7.240  0.5728E+01  0.1118E+02
  -7.230  0.5849E+01  0.1124E+02
  -7.220  0.5790E+01  0.1129E+02
  -7.210  0.5702E+01  0.1135E+02
  -7.200  0.5151E+01  0.1141E+02
  -7.190  0.5339E+01  0.1146E+02
  -7.180  0.7706E+01  0.1152E+02
  -7.170  0.7986E+01  0.1160E+02
  -7.160  0.6570E+01  0.1167E+02
  -7.150  0.6554E+01  0.1173E+02
  -7.140  0.6377E+01  0.1180E+02
  -7.130  0.6051E+01  0.1186E+02
  -7.120  0.6026E+01  0.1192E+02
  -7.110  0.5704E+01  0.1198E+02
  -7.100  0.5606E+01  0.1204E+02
  -7.090  0.5648E+01  0.1209E+02
  -7.080  0.5518E+01  0.1215E+02
  -7.070  0.5425E+01  0.1220E+02
  -7.060  0.5385E+01  0.1226E+02
  -7.050  0.5546E+01  0.1231E+02
  -7.040  0.5422E+01  0.1237E+02
  -7.030  0.5471E+01  0.1242E+02
  -7.020  0.5736E+01  0.1248E+02
  -7.010  0.5799E+01  0.1253E+02
  -7.000  0.5733E+01  0.1259E+02
  -6.990  0.5528E+01  0.1265E+02
  -6.980  0.5309E+01  0.1270E+02
  -6.970  0.5097E+01  0.1276E+02
  -6.960  0.4956E+01  0.1281E+02
  -6.950  0.4678E+01  0.1285E+02
  -6.940  0.4691E+01  0.1290E+02
  -6.930  0.4516E+01  0.1295E+02
  -6.920  0.3643E+01  0.1299E+02
  -6.910  0.5312E+01  0.1304E+02
  -6.900  0.5554E+01  0.1309E+02
  -6.890  0.6501E+01  0.1315E+02
  -6.880  0.6846E+01  0.1322E+02
  -6.870  0.6470E+01  0.1329E+02
  -6.860  0.6268E+01  0.1335E+02
  -6.850  0.5761E+01  0.1341E+02
  -6.840  0.5779E+01  0.1347E+02
  -6.830  0.5514E+01  0.1353E+02
  -6.820  0.5446E+01  0.1358E+02
  -6.810  0.5334E+01  0.1364E+02
  -6.800  0.5360E+01  0.1369E+02
  -6.790  0.5208E+01  0.1374E+02
  -6.780  0.5148E+01  0.1379E+02
  -6.770  0.5202E+01  0.1385E+02
  -6.760  0.5096E+01  0.1390E+02
  -6.750  0.5072E+01  0.1395E+02
  -6.740  0.4980E+01  0.1400E+02
  -6.730  0.4988E+01  0.1405E+02
  -6.720  0.4992E+01  0.1410E+02
  -6.710  0.4936E+01  0.1415E+02
  -6.700  0.4959E+01  0.1420E+02
  -6.690  0.4946E+01  0.1425E+02
  -6.680  0.4812E+01  0.1430E+02
  -6.670  0.4852E+01  0.1434E+02
  -6.660  0.4873E+01  0.1439E+02
  -6.650  0.4763E+01  0.1444E+02
  -6.640  0.4899E+01  0.1449E+02
  -6.630  0.4771E+01  0.1454E+02
  -6.620  0.4861E+01  0.1459E+02
  -6.610  0.5004E+01  0.1464E+02
  -6.600  0.4223E+01  0.1468E+02
  -6.590  0.4480E+01  0.1472E+02
  -6.580  0.3603E+01  0.1476E+02
  -6.570  0.3303E+01  0.1480E+02
  -6.560  0.2393E+01  0.1482E+02
  -6.550  0.1477E+01  0.1484E+02
  -6.540  0.1497E+01  0.1485E+02
  -6.530  0.1523E+01  0.1487E+02
  -6.520  0.1554E+01  0.1488E+02
  -6.510  0.1581E+01  0.1490E+02
  -6.500  0.1613E+01  0.1491E+02
  -6.490  0.1648E+01  0.1493E+02
  -6.480  0.1677E+01  0.1495E+02
  -6.470  0.1713E+01  0.1496E+02
  -6.460  0.1753E+01  0.1498E+02
  -6.450  0.1793E+01  0.1500E+02
  -6.440  0.1842E+01  0.1502E+02
  -6.430  0.1888E+01  0.1503E+02
  -6.420  0.1928E+01  0.1505E+02
  -6.410  0.1990E+01  0.1507E+02
  -6.400  0.2047E+01  0.1509E+02
  -6.390  0.2120E+01  0.1511E+02
  -6.380  0.2189E+01  0.1514E+02
  -6.370  0.2253E+01  0.1516E+02
  -6.360  0.2343E+01  0.1518E+02
  -6.350  0.2435E+01  0.1520E+02
  -6.340  0.2564E+01  0.1523E+02
  -6.330  0.2666E+01  0.1526E+02
  -6.320  0.2818E+01  0.1528E+02
  -6.310  0.2976E+01  0.1531E+02
  -6.300  0.3206E+01  0.1534E+02
  -6.290  0.3487E+01  0.1538E+02
  -6.280  0.3843E+01  0.1541E+02
  -6.270  0.4381E+01  0.1545E+02
  -6.260  0.5837E+01  0.1550E+02
  -6.250  0.5169E+01  0.1557E+02
  -6.240  0.4321E+01  0.1561E+02
  -6.230  0.3979E+01  0.1566E+02
  -6.220  0.3540E+01  0.1569E+02
  -6.210  0.3403E+01  0.1573E+02
  -6.200  0.3345E+01  0.1576E+02
  -6.190  0.3066E+01  0.1579E+02
  -6.180  0.2888E+01  0.1582E+02
  -6.170  0.2784E+01  0.1585E+02
  -6.160  0.2729E+01  0.1588E+02
  -6.150  0.2741E+01  0.1591E+02
  -6.140  0.2532E+01  0.1593E+02
  -6.130  0.2458E+01  0.1596E+02
  -6.120  0.2501E+01  0.1598E+02
  -6.110  0.0000E+00  0.1600E+02
  -6.100  0.0000E+00  0.1600E+02
  -6.090  0.0000E+00  0.1600E+02
  -6.080  0.0000E+00  0.1600E+02
  -6.070  0.0000E+00  0.1600E+02
  -6.060  0.0000E+00  0.1600E+02
  -6.050  0.0000E+00  0.1600E+02
  -6.040  0.0000E+00  0.1600E+02
  -6.030  0.0000E+00  0.1600E+02
  -6.020  0.0000E+00  0.1600E+02
  -6.010  0.0000E+00  0.1600E+02
  -6.000  0.0000E+00  0.1600E+02
  -5.990  0.0000E+00  0.1600E+02
  -5.980  0.0000E+00  0.1600E+02
  -5.970  0.0000E+00  0.1600E+02
  -5.960  0.0000E+00  0.1600E+02
  -5.950  0.0000E+00  0.1600E+02
  -5.940  0.0000E+00  0.1600E+02
  -5.930  0.0000E+00  0.1600E+02
  -5.920  0.0000E+00  0.1600E+02
  -5.910  0.0000E+00  0.1600E+02
  -5.900  0.0000E+00  0.1600E+02
  -5.890  0.0000E+00  0.1600E+02
  -5.880  0.0000E+00  0.1600E+02
  -5.870  0.0000E+00  0.1600E+02
  -5.860  0.0000E+00  0.1600E+02
  -5.850  0.0000E+00  0.1600E+02
  -5.840  0.0000E+00  0.1600E+02
  -5.830  0.0000E+00  0.1600E+02
  -5.820  0.0000E+00  0.1600E+02
  -5.810  0.0000E+00  0.1600E+02
  -5.800  0.0000E+00  0.1600E+02
  -5.790  0.0000E+00  0.1600E+02
  -5.780  0.0000E+00  0.1600E+02
  -5.770  0.0000E+00  0.1600E+02
  -5.760  0.0000E+00  0.1600E+02
  -5.750  0.0000E+00  0.1600E+02
  -5.740  0.0000E+00  0.1600E+02
  -5.730  0.0000E+00  0.1600E+02
  -5.720  0.0000E+00  0.1600E+02
  -5.710  0.0000E+00  0.1600E+02
  -5.700  0.0000E+00  0.1600E+02
  -5.690  0.0000E+00  0.1600E+02
  -5.680  0.0000E+00  0.1600E+02
  -5.670  0.0000E+00  0.1600E+02
  -5.660  0.0000E+00  0.1600E+02
  -5.650  0.0000E+00  0.1600E+02
  -5.640  0.0000E+00  0.1600E+02
  -5.630  0.0000E+00  0.1600E+02
  -5.620  0.0000E+00  0.1600E+02
  -5.610  0.0000E+00  0.1600E+02
  -5.600  0.0000E+00  0.1600E+02
  -5.590  0.0000E+00  0.1600E+02
  -5.580  0.0000E+00  0.1600E+02
  -5.570  0.0000E+00  0.1600E+02
  -5.560  0.0000E+00  0.1600E+02
  -5.550  0.0000E+00  0.1600E+02
  -5.540  0.0000E+00  0.1600E+02
  -5.530  0.0000E+00  0.1600E+02
  -5.520  0.0000E+00  0.1600E+02
  -5.510  0.0000E+00  0.1600E+02
  -5.500  0.0000E+00  0.1600E+02
  -5.490  0.0000E+00  0.1600E+02
  -5.480  0.0000E+00  0.1600E+02
  -5.470  0.0000E+00  0.1600E+02
  -5.460  0.0000E+00  0.1600E+02
  -5.450  0.0000E+00  0.1600E+02
  -5.440  0.0000E+00  0.1600E+02
  -5.430  0.0000E+00  0.1600E+02
  -5.420  0.0000E+00  0.1600E+02
  -5.410  0.0000E+00  0.1600E+02
  -5.400  0.0000E+00  0.1600E+02
  -5.390  0.0000E+00  0.1600E+02
  -5.380  0.0000E+00  0.1600E+02
  -5.370  0.0000E+00  0.1600E+02
  -5.360  0.0000E+00  0.1600E+02
  -5.350  0.0000E+00  0.1600E+02
  -5.340  0.0000E+00  0.1600E+02
  -5.330  0.0000E+00  0.1600E+02
  -5.320  0.0000E+00  0.1600E+02
  -5.310  0.0000E+00  0.1600E+02
  -5.300  0.0000E+00  0.1600E+02
  -5.290  0.0000E+00  0.1600E+02
  -5.280  0.0000E+00  0.1600E+02
  -5.270  0.0000E+00  0.1600E+02
  -5.260  0.0000E+00  0.1600E+02
  -5.250  0.0000E+00  0.1600E+02
  -5.240  0.0000E+00  0.1600E+02
  -5.230  0.0000E+00  0.1600E+02
  -5.220  0.0000E+00  0.1600E+02
  -5.210  0.0000E+00  0.1600E+02
  -5.200  0.0000E+00  0.1600E+02
  -5.190  0.0000E+00  0.1600E+02
  -5.180  0.0000E+00  0.1600E+02
  -5.170  0.0000E+00  0.1600E+02
  -5.160  0.0000E+00  0.1600E+02
  -5.150  0.0000E+00  0.1600E+02
  -5.140  0.0000E+00  0.1600E+02
  -5.130  0.0000E+00  0.1600E+02
  -5.120  0.0000E+00  0.1600E+02
  -5.110  0.0000E+00  0.1600E+02
  -5.100  0.0000E+00  0.1600E+02
  -5.090  0.0000E+00  0.1600E+02
  -5.080  0.0000E+00  0.1600E+02
  -5.070  0.0000E+00  0.1600E+02
  -5.060  0.0000E+00  0.1600E+02
  -5.050  0.0000E+00  0.1600E+02
  -5.040  0.0000E+00  0.1600E+02
  -5.030  0.0000E+00  0.1600E+02
  -5.020  0.0000E+00  0.1600E+02
  -5.010  0.0000E+00  0.1600E+02
  -5.000  0.0000E+00  0.1600E+02
  -4.990  0.0000E+00  0.1600E+02
  -4.980  0.0000E+00  0.1600E+02
  -4.970  0.0000E+00  0.1600E+02
  -4.960  0.0000E+00  0.1600E+02
  -4.950  0.0000E+00  0.1600E+02
  -4.940  0.0000E+00  0.1600E+02
  -4.930  0.0000E+00  0.1600E+02
  -4.920  0.0000E+00  0.1600E+02
  -4.910  0.0000E+00  0.1600E+02
  -4.900  0.0000E+00  0.1600E+02
  -4.890  0.0000E+00  0.1600E+02
  -4.880  0.0000E+00  0.1600E+02
  -4.870  0.0000E+00  0.1600E+02
  -4.860  0.0000E+00  0.1600E+02
  -4.850  0.0000E+00  0.1600E+02
  -4.840  0.0000E+00  0.1600E+02
  -4.830  0.0000E+00  0.1600E+02
  -4.820  0.0000E+00  0.1600E+02
  -4.810  0.0000E+00  0.1600E+02
  -4.800  0.0000E+00  0.1600E+02
  -4.790  0.0000E+00  0.1600E+02
  -4.780  0.0000E+00  0.1600E+02
  -4.770  0.0000E+00  0.1600E+02
  -4.760  0.0000E+00  0.1600E+02
  -4.750  0.0000E+00  0.1600E+02
  -4.740  0.0000E+00  0.1600E+02
  -4.730  0.0000E+00  0.1600E+02
  -4.720  0.0000E+00  0.1600E+02
  -4.710  0.0000E+00  0.1600E+02
  -4.700  0.0000E+00  0.1600E+02
  -4.690  0.0000E+00  0.1600E+02
  -4.680  0.0000E+00  0.1600E+02
  -4.670  0.0000E+00  0.1600E+02
  -4.660  0.0000E+00  0.1600E+02
  -4.650  0.0000E+00  0.1600E+02
  -4.640  0.0000E+00  0.1600E+02
  -4.630  0.0000E+00  0.1600E+02
  -4.620  0.0000E+00  0.1600E+02
  -4.610  0.0000E+00  0.1600E+02
  -4.600  0.0000E+00  0.1600E+02
  -4.590  0.0000E+00  0.1600E+02
  -4.580  0.0000E+00  0.1600E+02
  -4.570  0.0000E+00  0.1600E+02
  -4.560  0.0000E+00  0.1600E+02
  -4.550  0.0000E+00  0.1600E+02
  -4.540  0.0000E+00  0.1600E+02
  -4.530  0.0000E+00  0.1600E+02
  -4.520  0.0000E+00  0.1600E+02
  -4.510  0.0000E+00  0.1600E+02
  -4.500  0.0000E+00  0.1600E+02
  -4.490  0.0000E+00  0.1600E+02
  -4.480  0.0000E+00  0.1600E+02
  -4.470  0.0000E+00  0.1600E+02
  -4.460  0.0000E+00  0.1600E+02
  -4.450  0.0000E+00  0.1600E+02
  -4.440  0.0000E+00  0.1600E+02
  -4.430  0.0000E+00  0.1600E+02
  -4.420  0.0000E+00  0.1600E+02
  -4.410  0.1456E+00  0.1600E+02
  -4.400  0.2232E+00  0.1600E+02
  -4.390  0.2695E+00  0.1601E+02
  -4.380  0.2933E+00  0.1601E+02
  -4.370  0.2585E+00  0.1601E+02
  -4.360  0.2877E+00  0.1601E+02
  -4.350  0.3169E+00  0.1602E+02
  -4.340  0.2957E+00  0.1602E+02
  -4.330  0.2828E+00  0.1602E+02
  -4.320  0.3033E+00  0.1603E+02
  -4.310  0.3261E+00  0.1603E+02
  -4.300  0.3267E+00  0.1603E+02
  -4.290  0.3213E+00  0.1604E+02
  -4.280  0.3236E+00  0.1604E+02
  -4.270  0.3262E+00  0.1604E+02
  -4.260  0.3465E+00  0.1605E+02
  -4.250  0.3668E+00  0.1605E+02
  -4.240  0.3512E+00  0.1605E+02
  -4.230  0.3563E+00  0.1606E+02
  -4.220  0.3630E+00  0.1606E+02
  -4.210  0.3697E+00  0.1606E+02
  -4.200  0.3793E+00  0.1607E+02
  -4.190  0.3989E+00  0.1607E+02
  -4.180  0.3927E+00  0.1607E+02
  -4.170  0.3920E+00  0.1608E+02
  -4.160  0.4023E+00  0.1608E+02
  -4.150  0.4111E+00  0.1609E+02
  -4.140  0.4199E+00  0.1609E+02
  -4.130  0.4288E+00  0.1610E+02
  -4.120  0.4358E+00  0.1610E+02
  -4.110  0.4390E+00  0.1610E+02
  -4.100  0.4423E+00  0.1611E+02
  -4.090  0.4455E+00  0.1611E+02
  -4.080  0.4617E+00  0.1612E+02
  -4.070  0.4720E+00  0.1612E+02
  -4.060  0.4823E+00  0.1613E+02
  -4.050  0.4802E+00  0.1613E+02
  -4.040  0.4891E+00  0.1614E+02
  -4.030  0.4964E+00  0.1614E+02
  -4.020  0.5019E+00  0.1615E+02
  -4.010  0.5073E+00  0.1615E+02
  -4.000  0.5260E+00  0.1616E+02
  -3.990  0.5376E+00  0.1616E+02
  -3.980  0.5360E+00  0.1617E+02
  -3.970  0.5407E+00  0.1617E+02
  -3.960  0.5526E+00  0.1618E+02
  -3.950  0.5606E+00  0.1618E+02
  -3.940  0.5677E+00  0.1619E+02
  -3.930  0.5824E+00  0.1620E+02
  -3.920  0.5952E+00  0.1620E+02
  -3.910  0.5955E+00  0.1621E+02
  -3.900  0.5994E+00  0.1621E+02
  -3.890  0.6083E+00  0.1622E+02
  -3.880  0.6218E+00  0.1623E+02
  -3.870  0.6302E+00  0.1623E+02
  -3.860  0.6385E+00  0.1624E+02
  -3.850  0.6551E+00  0.1624E+02
  -3.840  0.6573E+00  0.1625E+02
  -3.830  0.6637E+00  0.1626E+02
  -3.820  0.6694E+00  0.1626E+02
  -3.810  0.6817E+00  0.1627E+02
  -3.800  0.6951E+00  0.1628E+02
  -3.790  0.7045E+00  0.1628E+02
  -3.780  0.7139E+00  0.1629E+02
  -3.770  0.7220E+00  0.1630E+02
  -3.760  0.7298E+00  0.1631E+02
  -3.750  0.7378E+00  0.1631E+02
  -3.740  0.7441E+00  0.1632E+02
  -3.730  0.7605E+00  0.1633E+02
  -3.720  0.7729E+00  0.1634E+02
  -3.710  0.7832E+00  0.1634E+02
  -3.700  0.7832E+00  0.1635E+02
  -3.690  0.7981E+00  0.1636E+02
  -3.680  0.8073E+00  0.1637E+02
  -3.670  0.8156E+00  0.1638E+02
  -3.660  0.8262E+00  0.1638E+02
  -3.650  0.8434E+00  0.1639E+02
  -3.640  0.8529E+00  0.1640E+02
  -3.630  0.8552E+00  0.1641E+02
  -3.620  0.8681E+00  0.1642E+02
  -3.610  0.8784E+00  0.1643E+02
  -3.600  0.8885E+00  0.1644E+02
  -3.590  0.8962E+00  0.1644E+02
  -3.580  0.9131E+00  0.1645E+02
  -3.570  0.9239E+00  0.1646E+02
  -3.560  0.9283E+00  0.1647E+02
  -3.550  0.9341E+00  0.1648E+02
  -3.540  0.9507E+00  0.1649E+02
  -3.530  0.9614E+00  0.1650E+02
  -3.520  0.9704E+00  0.1651E+02
  -3.510  0.9835E+00  0.1652E+02
  -3.500  0.9962E+00  0.1653E+02
  -3.490  0.1002E+01  0.1654E+02
  -3.480  0.1008E+01  0.1655E+02
  -3.470  0.1023E+01  0.1656E+02
  -3.460  0.1034E+01  0.1657E+02
  -3.450  0.1044E+01  0.1658E+02
  -3.440  0.1054E+01  0.1659E+02
  -3.430  0.1068E+01  0.1660E+02
  -3.420  0.1074E+01  0.1661E+02
  -3.410  0.1080E+01  0.1662E+02
  -3.400  0.1095E+01  0.1663E+02
  -3.390  0.1105E+01  0.1664E+02
  -3.380  0.1116E+01  0.1666E+02
  -3.370  0.1124E+01  0.1667E+02
  -3.360  0.1138E+01  0.1668E+02
  -3.350  0.1143E+01  0.1669E+02
  -3.340  0.1149E+01  0.1670E+02
  -3.330  0.1163E+01  0.1671E+02
  -3.320  0.1173E+01  0.1672E+02
  -3.310  0.1183E+01  0.1674E+02
  -3.300  0.1191E+01  0.1675E+02
  -3.290  0.1204E+01  0.1676E+02
  -3.280  0.1208E+01  0.1677E+02
  -3.270  0.1213E+01  0.1678E+02
  -3.260  0.1226E+01  0.1680E+02
  -3.250  0.1236E+01  0.1681E+02
  -3.240  0.1245E+01  0.1682E+02
  -3.230  0.1254E+01  0.1683E+02
  -3.220  0.1266E+01  0.1685E+02
  -3.210  0.1268E+01  0.1686E+02
  -3.200  0.1271E+01  0.1687E+02
  -3.190  0.1285E+01  0.1688E+02
  -3.180  0.1294E+01  0.1690E+02
  -3.170  0.1302E+01  0.1691E+02
  -3.160  0.1312E+01  0.1692E+02
  -3.150  0.1326E+01  0.1694E+02
  -3.140  0.1324E+01  0.1695E+02
  -3.130  0.1325E+01  0.1696E+02
  -3.120  0.1340E+01  0.1698E+02
  -3.110  0.1348E+01  0.1699E+02
  -3.100  0.1355E+01  0.1700E+02
  -3.090  0.1370E+01  0.1702E+02
  -3.080  0.1385E+01  0.1703E+02
  -3.070  0.1382E+01  0.1704E+02
  -3.060  0.1391E+01  0.1706E+02
  -3.050  0.1399E+01  0.1707E+02
  -3.040  0.1407E+01  0.1709E+02
  -3.030  0.1416E+01  0.1710E+02
  -3.020  0.1437E+01  0.1711E+02
  -3.010  0.1449E+01  0.1713E+02
  -3.000  0.1459E+01  0.1714E+02
  -2.990  0.1471E+01  0.1716E+02
  -2.980  0.1478E+01  0.1717E+02
  -2.970  0.1490E+01  0.1719E+02
  -2.960  0.1517E+01  0.1720E+02
  -2.950  0.1533E+01  0.1722E+02
  -2.940  0.1546E+01  0.1723E+02
  -2.930  0.1591E+01  0.1725E+02
  -2.920  0.1644E+01  0.1727E+02
  -2.910  0.1648E+01  0.1728E+02
  -2.900  0.1685E+01  0.1730E+02
  -2.890  0.1708E+01  0.1732E+02
  -2.880  0.1786E+01  0.1733E+02
  -2.870  0.1853E+01  0.1735E+02
  -2.860  0.2157E+01  0.1737E+02
  -2.850  0.2418E+01  0.1739E+02
  -2.840  0.2391E+01  0.1742E+02
  -2.830  0.2299E+01  0.1744E+02
  -2.820  0.1908E+01  0.1746E+02
  -2.810  0.1713E+01  0.1748E+02
  -2.800  0.1628E+01  0.1750E+02
  -2.790  0.1513E+01  0.1751E+02
  -2.780  0.1484E+01  0.1753E+02
  -2.770  0.1390E+01  0.1754E+02
  -2.760  0.1334E+01  0.1756E+02
  -2.750  0.1300E+01  0.1757E+02
  -2.740  0.1237E+01  0.1758E+02
  -2.730  0.1199E+01  0.1759E+02
  -2.720  0.1162E+01  0.1761E+02
  -2.710  0.1102E+01  0.1762E+02
  -2.700  0.1100E+01  0.1763E+02
  -2.690  0.1064E+01  0.1764E+02
  -2.680  0.1021E+01  0.1765E+02
  -2.670  0.9907E+00  0.1766E+02
  -2.660  0.9749E+00  0.1767E+02
  -2.650  0.9687E+00  0.1768E+02
  -2.640  0.9156E+00  0.1769E+02
  -2.630  0.8964E+00  0.1770E+02
  -2.620  0.8770E+00  0.1771E+02
  -2.610  0.8576E+00  0.1772E+02
  -2.600  0.8225E+00  0.1772E+02
  -2.590  0.8243E+00  0.1773E+02
  -2.580  0.8034E+00  0.1774E+02
  -2.570  0.7767E+00  0.1775E+02
  -2.560  0.7500E+00  0.1776E+02
  -2.550  0.7372E+00  0.1776E+02
  -2.540  0.7289E+00  0.1777E+02
  -2.530  0.7200E+00  0.1778E+02
  -2.520  0.6979E+00  0.1778E+02
  -2.510  0.6767E+00  0.1779E+02
  -2.500  0.6644E+00  0.1780E+02
  -2.490  0.6521E+00  0.1780E+02
  -2.480  0.6376E+00  0.1781E+02
  -2.470  0.6129E+00  0.1782E+02
  -2.460  0.6181E+00  0.1782E+02
  -2.450  0.6089E+00  0.1783E+02
  -2.440  0.5911E+00  0.1784E+02
  -2.430  0.5733E+00  0.1784E+02
  -2.420  0.5592E+00  0.1785E+02
  -2.410  0.5524E+00  0.1785E+02
  -2.400  0.5456E+00  0.1786E+02
  -2.390  0.5388E+00  0.1786E+02
  -2.380  0.5206E+00  0.1787E+02
  -2.370  0.5068E+00  0.1787E+02
  -2.360  0.4989E+00  0.1788E+02
  -2.350  0.4909E+00  0.1788E+02
  -2.340  0.4787E+00  0.1789E+02
  -2.330  0.4631E+00  0.1789E+02
  -2.320  0.4695E+00  0.1790E+02
  -2.310  0.4773E+00  0.1790E+02
  -2.300  0.4588E+00  0.1791E+02
  -2.290  0.4387E+00  0.1791E+02
  -2.280  0.4186E+00  0.1792E+02
  -2.270  0.4114E+00  0.1792E+02
  -2.260  0.4096E+00  0.1792E+02
  -2.250  0.4077E+00  0.1793E+02
  -2.240  0.3925E+00  0.1793E+02
  -2.230  0.3975E+00  0.1794E+02
  -2.220  0.4042E+00  0.1794E+02
  -2.210  0.3859E+00  0.1794E+02
  -2.200  0.3676E+00  0.1795E+02
  -2.190  0.3493E+00  0.1795E+02
  -2.180  0.3459E+00  0.1796E+02
  -2.170  0.3611E+00  0.1796E+02
  -2.160  0.3546E+00  0.1796E+02
  -2.150  0.3210E+00  0.1797E+02
  -2.140  0.3380E+00  0.1797E+02
  -2.130  0.3392E+00  0.1797E+02
  -2.120  0.3154E+00  0.1798E+02
  -2.110  0.2917E+00  0.1798E+02
  -2.100  0.3176E+00  0.1798E+02
  -2.090  0.2896E+00  0.1799E+02
  -2.080  0.2616E+00  0.1799E+02
  -2.070  0.3337E+00  0.1799E+02
  -2.060  0.2830E+00  0.1799E+02
  -2.050  0.2506E+00  0.1800E+02
  -2.040  0.2589E+00  0.1800E+02
  -2.030  0.0000E+00  0.1800E+02
  -2.020  0.0000E+00  0.1800E+02
  -2.010  0.0000E+00  0.1800E+02
  -2.000  0.0000E+00  0.1800E+02
  -1.990  0.0000E+00  0.1800E+02
  -1.980  0.0000E+00  0.1800E+02
  -1.970  0.0000E+00  0.1800E+02
  -1.960  0.0000E+00  0.1800E+02
  -1.950  0.0000E+00  0.1800E+02
  -1.940  0.0000E+00  0.1800E+02
  -1.930  0.0000E+00  0.1800E+02
  -1.920  0.0000E+00  0.1800E+02
  -1.910  0.0000E+00  0.1800E+02
  -1.900  0.0000E+00  0.1800E+02
  -1.890  0.0000E+00  0.1800E+02
  -1.880  0.0000E+00  0.1800E+02
  -1.870  0.0000E+00  0.1800E+02
  -1.860  0.0000E+00  0.1800E+02
  -1.850  0.0000E+00  0.1800E+02
  -1.840  0.0000E+00  0.1800E+02
  -1.830  0.0000E+00  0.1800E+02
  -1.820  0.0000E+00  0.1800E+02
  -1.810  0.0000E+00  0.1800E+02
  -1.800  0.0000E+00  0.1800E+02
  -1.790  0.0000E+00  0.1800E+02
  -1.780  0.0000E+00  0.1800E+02
  -1.770  0.0000E+00  0.1800E+02
  -1.760  0.0000E+00  0.1800E+02
  -1.750  0.0000E+00  0.1800E+02
  -1.740  0.0000E+00  0.1800E+02
  -1.730  0.0000E+00  0.1800E+02
  -1.720  0.0000E+00  0.1800E+02
  -1.710  0.0000E+00  0.1800E+02
  -1.700  0.0000E+00  0.1800E+02
  -1.690  0.0000E+00  0.1800E+02
  -1.680  0.0000E+00  0.1800E+02
  -1.670  0.0000E+00  0.1800E+02
  -1.660  0.0000E+00  0.1800E+02
  -1.650  0.0000E+00  0.1800E+02
  -1.640  0.0000E+00  0.1800E+02
  -1.630  0.0000E+00  0.1800E+02
  -1.620  0.0000E+00  0.1800E+02
  -1.610  0.0000E+00  0.1800E+02
  -1.600  0.0000E+00  0.1800E+02
  -1.590  0.0000E+00  0.1800E+02
  -1.580  0.0000E+00  0.1800E+02
  -1.570  0.0000E+00  0.1800E+02
  -1.560  0.0000E+00  0.1800E+02
  -1.550  0.0000E+00  0.1800E+02
  -1.540  0.0000E+00  0.1800E+02
  -1.530  0.0000E+00  0.1800E+02
  -1.520  0.0000E+00  0.1800E+02
  -1.510  0.0000E+00  0.1800E+02
  -1.500  0.0000E+00  0.1800E+02
  -1.490  0.0000E+00  0.1800E+02
  -1.480  0.0000E+00  0.1800E+02
  -1.470  0.0000E+00  0.1800E+02
  -1.460  0.0000E+00  0.1800E+02
  -1.450  0.0000E+00  0.1800E+02
  -1.440  0.0000E+00  0.1800E+02
  -1.430  0.0000E+00  0.1800E+02
  -1.420  0.0000E+00  0.1800E+02
  -1.410  0.0000E+00  0.1800E+02
  -1.400  0.0000E+00  0.1800E+02
  -1.390  0.0000E+00  0.1800E+02
  -1.380  0.0000E+00  0.1800E+02
  -1.370  0.0000E+00  0.1800E+02
  -1.360  0.0000E+00  0.1800E+02
  -1.350  0.0000E+00  0.1800E+02
  -1.340  0.0000E+00  0.1800E+02
  -1.330  0.0000E+00  0.1800E+02
  -1.320  0.0000E+00  0.1800E+02
  -1.310  0.0000E+00  0.1800E+02
  -1.300  0.0000E+00  0.1800E+02
  -1.290  0.0000E+00  0.1800E+02
  -1.280  0.0000E+00  0.1800E+02
  -1.270  0.0000E+00  0.1800E+02
  -1.260  0.0000E+00  0.1800E+02
  -1.250  0.0000E+00  0.1800E+02
  -1.240  0.0000E+00  0.1800E+02
  -1.230  0.0000E+00  0.1800E+02
  -1.220  0.0000E+00  0.1800E+02
  -1.210  0.0000E+00  0.1800E+02
  -1.200  0.0000E+00  0.1800E+02
  -1.190  0.0000E+00  0.1800E+02
  -1.180  0.0000E+00  0.1800E+02
  -1.170  0.0000E+00  0.1800E+02
  -1.160  0.0000E+00  0.1800E+02
  -1.150  0.0000E+00  0.1800E+02
  -1.140  0.0000E+00  0.1800E+02
  -1.130  0.0000E+00  0.1800E+02
  -1.120  0.0000E+00  0.1800E+02
  -1.110  0.0000E+00  0.1800E+02
  -1.100  0.0000E+00  0.1800E+02
  -1.090  0.0000E+00  0.1800E+02
  -1.080  0.0000E+00  0.1800E+02
  -1.070  0.0000E+00  0.1800E+02
  -1.060  0.0000E+00  0.1800E+02
  -1.050  0.0000E+00  0.1800E+02
  -1.040  0.0000E+00  0.1800E+02
  -1.030  0.0000E+00  0.1800E+02
  -1.020  0.0000E+00  0.1800E+02
  -1.010  0.0000E+00  0.1800E+02
  -1.000  0.0000E+00  0.1800E+02
  -0.990  0.0000E+00  0.1800E+02
  -0.980  0.0000E+00  0.1800E+02
  -0.970  0.0000E+00  0.1800E+02
  -0.960  0.0000E+00  0.1800E+02
  -0.950  0.0000E+00  0.1800E+02
  -0.940  0.0000E+00  0.1800E+02
  -0.930  0.0000E+00  0.1800E+02
  -0.920  0.0000E+00  0.1800E+02
  -0.910  0.0000E+00  0.1800E+02
  -0.900  0.0000E+00  0.1800E+02
  -0.890  0.0000E+00  0.1800E+02
  -0.880  0.0000E+00  0.1800E+02
  -0.870  0.0000E+00  0.1800E+02
  -0.860  0.0000E+00  0.1800E+02
  -0.850  0.0000E+00  0.1800E+02
  -0.840  0.0000E+00  0.1800E+02
  -0.830  0.0000E+00  0.1800E+02
  -0.820  0.0000E+00  0.1800E+02
  -0.810  0.0000E+00  0.1800E+02
  -0.800  0.0000E+00  0.1800E+02
  -0.790  0.0000E+00  0.1800E+02
  -0.780  0.0000E+00  0.1800E+02
  -0.770  0.0000E+00  0.1800E+02
  -0.760  0.0000E+00  0.1800E+02
  -0.750  0.0000E+00  0.1800E+02
  -0.740  0.0000E+00  0.1800E+02
  -0.730  0.0000E+00  0.1800E+02
  -0.720  0.0000E+00  0.1800E+02
  -0.710  0.0000E+00  0.1800E+02
  -0.700  0.0000E+00  0.1800E+02
  -0.690  0.0000E+00  0.1800E+02
  -0.680  0.0000E+00  0.1800E+02
  -0.670  0.0000E+00  0.1800E+02
  -0.660  0.0000E+00  0.1800E+02
  -0.650  0.0000E+00  0.1800E+02
  -0.640  0.0000E+00  0.1800E+02
  -0.630  0.6075E-01  0.1800E+02
  -0.620  0.3218E+00  0.1800E+02
  -0.610  0.5380E+00  0.1801E+02
  -0.600  0.4928E+00  0.1801E+02
  -0.590  0.4849E+00  0.1802E+02
  -0.580  0.5124E+00  0.1802E+02
  -0.570  0.4958E+00  0.1803E+02
  -0.560  0.4981E+00  0.1803E+02
  -0.550  0.5013E+00  0.1804E+02
  -0.540  0.5284E+00  0.1804E+02
  -0.530  0.5509E+00  0.1805E+02
  -0.520  0.5734E+00  0.1805E+02
  -0.510  0.5867E+00  0.1806E+02
  -0.500  0.6031E+00  0.1807E+02
  -0.490  0.5331E+00  0.1807E+02
  -0.480  0.5445E+00  0.1808E+02
  -0.470  0.5624E+00  0.1808E+02
  -0.460  0.5817E+00  0.1809E+02
  -0.450  0.6050E+00  0.1809E+02
  -0.440  0.6310E+00  0.1810E+02
  -0.430  0.6561E+00  0.1811E+02
  -0.420  0.6039E+00  0.1811E+02
  -0.410  0.6526E+00  0.1812E+02
  -0.400  0.8989E+00  0.1813E+02
  -0.390  0.9110E+00  0.1814E+02
  -0.380  0.9751E+00  0.1815E+02
  -0.370  0.1042E+01  0.1816E+02
  -0.360  0.1051E+01  0.1817E+02
  -0.350  0.1096E+01  0.1818E+02
  -0.340  0.1113E+01  0.1819E+02
  -0.330  0.1144E+01  0.1820E+02
  -0.320  0.1264E+01  0.1821E+02
  -0.310  0.1290E+01  0.1822E+02
  -0.300  0.1418E+01  0.1824E+02
  -0.290  0.1922E+01  0.1825E+02
  -0.280  0.1612E+01  0.1827E+02
  -0.270  0.1890E+01  0.1829E+02
  -0.260  0.1567E+01  0.1831E+02
  -0.250  0.1407E+01  0.1832E+02
  -0.240  0.1359E+01  0.1834E+02
  -0.230  0.1328E+01  0.1835E+02
  -0.220  0.1219E+01  0.1836E+02
  -0.210  0.1154E+01  0.1837E+02
  -0.200  0.1126E+01  0.1838E+02
  -0.190  0.1099E+01  0.1840E+02
  -0.180  0.1083E+01  0.1841E+02
  -0.170  0.1066E+01  0.1842E+02
  -0.160  0.1023E+01  0.1843E+02
  -0.150  0.9966E+00  0.1844E+02
  -0.140  0.9790E+00  0.1845E+02
  -0.130  0.9615E+00  0.1846E+02
  -0.120  0.9497E+00  0.1847E+02
  -0.110  0.9408E+00  0.1848E+02
  -0.100  0.9280E+00  0.1849E+02
  -0.090  0.9141E+00  0.1850E+02
  -0.080  0.9042E+00  0.1850E+02
  -0.070  0.8898E+00  0.1851E+02
  -0.060  0.8659E+00  0.1852E+02
  -0.050  0.8617E+00  0.1853E+02
  -0.040  0.8523E+00  0.1854E+02
  -0.030  0.8429E+00  0.1855E+02
  -0.020  0.8339E+00  0.1856E+02
  -0.010  0.8204E+00  0.1856E+02
   0.000  0.8103E+00  0.1857E+02
   0.010  0.8087E+00  0.1858E+02
   0.020  0.8071E+00  0.1859E+02
   0.030  0.8055E+00  0.1860E+02
   0.040  0.8039E+00  0.1860E+02
   0.050  0.7885E+00  0.1861E+02
   0.060  0.7785E+00  0.1862E+02
   0.070  0.7670E+00  0.1863E+02
   0.080  0.7626E+00  0.1864E+02
   0.090  0.7555E+00  0.1864E+02
   0.100  0.7503E+00  0.1865E+02
   0.110  0.7469E+00  0.1866E+02
   0.120  0.7435E+00  0.1867E+02
   0.130  0.7399E+00  0.1867E+02
   0.140  0.7362E+00  0.1868E+02
   0.150  0.7349E+00  0.1869E+02
   0.160  0.7336E+00  0.1870E+02
   0.170  0.7323E+00  0.1870E+02
   0.180  0.7238E+00  0.1871E+02
   0.190  0.7087E+00  0.1872E+02
   0.200  0.7052E+00  0.1872E+02
   0.210  0.7014E+00  0.1873E+02
   0.220  0.6977E+00  0.1874E+02
   0.230  0.6940E+00  0.1875E+02
   0.240  0.6962E+00  0.1875E+02
   0.250  0.6948E+00  0.1876E+02
   0.260  0.6933E+00  0.1877E+02
   0.270  0.6915E+00  0.1877E+02
   0.280  0.6886E+00  0.1878E+02
   0.290  0.6840E+00  0.1879E+02
   0.300  0.6794E+00  0.1879E+02
   0.310  0.6759E+00  0.1880E+02
   0.320  0.6765E+00  0.1881E+02
   0.330  0.6704E+00  0.1881E+02
   0.340  0.6675E+00  0.1882E+02
   0.350  0.6645E+00  0.1883E+02
   0.360  0.6620E+00  0.1883E+02
   0.370  0.6596E+00  0.1884E+02
   0.380  0.6570E+00  0.1885E+02
   0.390  0.6544E+00  0.1885E+02
   0.400  0.6517E+00  0.1886E+02
   0.410  0.6507E+00  0.1887E+02
   0.420  0.6477E+00  0.1887E+02
   0.430  0.6459E+00  0.1888E+02
   0.440  0.6461E+00  0.1889E+02
   0.450  0.6462E+00  0.1889E+02
   0.460  0.6473E+00  0.1890E+02
   0.470  0.6460E+00  0.1891E+02
   0.480  0.6448E+00  0.1891E+02
   0.490  0.6393E+00  0.1892E+02
   0.500  0.6355E+00  0.1892E+02
   0.510  0.6336E+00  0.1893E+02
   0.520  0.6317E+00  0.1894E+02
   0.530  0.6303E+00  0.1894E+02
   0.540  0.6276E+00  0.1895E+02
   0.550  0.6221E+00  0.1896E+02
   0.560  0.6214E+00  0.1896E+02
   0.570  0.6205E+00  0.1897E+02
   0.580  0.6196E+00  0.1898E+02
   0.590  0.6187E+00  0.1898E+02
   0.600  0.6177E+00  0.1899E+02
   0.610  0.6206E+00  0.1899E+02
   0.620  0.6206E+00  0.1900E+02
   0.630  0.6207E+00  0.1901E+02
   0.640  0.6209E+00  0.1901E+02
   0.650  0.6209E+00  0.1902E+02
   0.660  0.6175E+00  0.1902E+02
   0.670  0.6135E+00  0.1903E+02
   0.680  0.6093E+00  0.1904E+02
   0.690  0.6061E+00  0.1904E+02
   0.700  0.6061E+00  0.1905E+02
   0.710  0.6059E+00  0.1906E+02
   0.720  0.6057E+00  0.1906E+02
   0.730  0.6055E+00  0.1907E+02
   0.740  0.6048E+00  0.1907E+02
   0.750  0.6041E+00  0.1908E+02
   0.760  0.6032E+00  0.1909E+02
   0.770  0.6022E+00  0.1909E+02
   0.780  0.6011E+00  0.1910E+02
   0.790  0.6001E+00  0.1910E+02
   0.800  0.5990E+00  0.1911E+02
   0.810  0.6003E+00  0.1912E+02
   0.820  0.5974E+00  0.1912E+02
   0.830  0.5983E+00  0.1913E+02
   0.840  0.5985E+00  0.1913E+02
   0.850  0.5964E+00  0.1914E+02
   0.860  0.5960E+00  0.1915E+02
   0.870  0.5954E+00  0.1915E+02
   0.880  0.5964E+00  0.1916E+02
   0.890  0.5948E+00  0.1916E+02
   0.900  0.5938E+00  0.1917E+02
   0.910  0.5935E+00  0.1918E+02
   0.920  0.5933E+00  0.1918E+02
   0.930  0.5931E+00  0.1919E+02
   0.940  0.5925E+00  0.1919E+02
   0.950  0.5909E+00  0.1920E+02
   0.960  0.5887E+00  0.1920E+02
   0.970  0.5868E+00  0.1921E+02
   0.980  0.5868E+00  0.1922E+02
   0.990  0.5868E+00  0.1922E+02
   1.000  0.5868E+00  0.1923E+02
   1.010  0.5872E+00  0.1923E+02
   1.020  0.5908E+00  0.1924E+02
   1.030  0.5896E+00  0.1925E+02
   1.040  0.5887E+00  0.1925E+02
   1.050  0.5879E+00  0.1926E+02
   1.060  0.5875E+00  0.1926E+02
   1.070  0.5870E+00  0.1927E+02
   1.080  0.5865E+00  0.1928E+02
   1.090  0.5859E+00  0.1928E+02
   1.100  0.5852E+00  0.1929E+02
   1.110  0.5848E+00  0.1929E+02
   1.120  0.5840E+00  0.1930E+02
   1.130  0.5846E+00  0.1930E+02
   1.140  0.5853E+00  0.1931E+02
   1.150  0.5856E+00  0.1932E+02
   1.160  0.5855E+00  0.1932E+02
   1.170  0.5855E+00  0.1933E+02
   1.180  0.5861E+00  0.1933E+02
   1.190  0.5862E+00  0.1934E+02
   1.200  0.5862E+00  0.1935E+02
   1.210  0.5861E+00  0.1935E+02
   1.220  0.5857E+00  0.1936E+02
   1.230  0.5862E+00  0.1936E+02
   1.240  0.5856E+00  0.1937E+02
   1.250  0.5850E+00  0.1937E+02
   1.260  0.5831E+00  0.1938E+02
   1.270  0.5812E+00  0.1939E+02
   1.280  0.5817E+00  0.1939E+02
   1.290  0.5822E+00  0.1940E+02
   1.300  0.5826E+00  0.1940E+02
   1.310  0.5829E+00  0.1941E+02
   1.320  0.5834E+00  0.1942E+02
   1.330  0.5851E+00  0.1942E+02
   1.340  0.5893E+00  0.1943E+02
   1.350  0.5903E+00  0.1943E+02
   1.360  0.5909E+00  0.1944E+02
   1.370  0.5909E+00  0.1945E+02
   1.380  0.5908E+00  0.1945E+02
   1.390  0.5906E+00  0.1946E+02
   1.400  0.5902E+00  0.1946E+02
   1.410  0.5894E+00  0.1947E+02
   1.420  0.5874E+00  0.1947E+02
   1.430  0.5851E+00  0.1948E+02
   1.440  0.5878E+00  0.1949E+02
   1.450  0.5882E+00  0.1949E+02
   1.460  0.5886E+00  0.1950E+02
   1.470  0.5890E+00  0.1950E+02
   1.480  0.5894E+00  0.1951E+02
   1.490  0.5898E+00  0.1952E+02
   1.500  0.5902E+00  0.1952E+02
   1.510  0.5905E+00  0.1953E+02
   1.520  0.5914E+00  0.1953E+02
   1.530  0.5923E+00  0.1954E+02
   1.540  0.5941E+00  0.1955E+02
   1.550  0.5958E+00  0.1955E+02
   1.560  0.5976E+00  0.1956E+02
   1.570  0.5984E+00  0.1956E+02
   1.580  0.5990E+00  0.1957E+02
   1.590  0.5995E+00  0.1958E+02
   1.600  0.6009E+00  0.1958E+02
   1.610  0.6014E+00  0.1959E+02
   1.620  0.6011E+00  0.1959E+02
   1.630  0.6004E+00  0.1960E+02
   1.640  0.6034E+00  0.1961E+02
   1.650  0.6040E+00  0.1961E+02
   1.660  0.6092E+00  0.1962E+02
   1.670  0.8195E+00  0.1963E+02
   1.680  0.8720E+00  0.1963E+02
   1.690  0.9648E+00  0.1964E+02
   1.700  0.8648E+00  0.1965E+02
   1.710  0.8950E+00  0.1966E+02
   1.720  0.9249E+00  0.1967E+02
   1.730  0.9079E+00  0.1968E+02
   1.740  0.8932E+00  0.1969E+02
   1.750  0.9017E+00  0.1970E+02
   1.760  0.9244E+00  0.1971E+02
   1.770  0.9464E+00  0.1972E+02
   1.780  0.9197E+00  0.1972E+02
   1.790  0.9217E+00  0.1973E+02
   1.800  0.9237E+00  0.1974E+02
   1.810  0.9319E+00  0.1975E+02
   1.820  0.9482E+00  0.1976E+02
   1.830  0.9642E+00  0.1977E+02
   1.840  0.9500E+00  0.1978E+02
   1.850  0.9535E+00  0.1979E+02
   1.860  0.9659E+00  0.1980E+02
   1.870  0.9795E+00  0.1981E+02
   1.880  0.9928E+00  0.1982E+02
   1.890  0.1012E+01  0.1983E+02
   1.900  0.1033E+01  0.1984E+02
   1.910  0.1033E+01  0.1985E+02
   1.920  0.1047E+01  0.1986E+02
   1.930  0.1054E+01  0.1987E+02
   1.940  0.1073E+01  0.1988E+02
   1.950  0.1088E+01  0.1989E+02
   1.960  0.1080E+01  0.1990E+02
   1.970  0.1063E+01  0.1991E+02
   1.980  0.1049E+01  0.1992E+02
   1.990  0.1023E+01  0.1994E+02
   2.000  0.1001E+01  0.1995E+02
   2.010  0.9821E+00  0.1996E+02
   2.020  0.1010E+01  0.1997E+02
   2.030  0.9691E+00  0.1998E+02
   2.040  0.9391E+00  0.1999E+02
   2.050  0.9462E+00  0.1999E+02
   2.060  0.9537E+00  0.2000E+02
   2.070  0.9165E+00  0.2001E+02
   2.080  0.8687E+00  0.2002E+02
   2.090  0.8499E+00  0.2003E+02
   2.100  0.8539E+00  0.2004E+02
   2.110  0.8576E+00  0.2005E+02
   2.120  0.8642E+00  0.2006E+02
   2.130  0.8893E+00  0.2007E+02
   2.140  0.9255E+00  0.2007E+02
   2.150  0.9597E+00  0.2008E+02
   2.160  0.9940E+00  0.2009E+02
   2.170  0.1028E+01  0.2010E+02
   2.180  0.1149E+01  0.2012E+02
   2.190  0.1142E+01  0.2013E+02
   2.200  0.1140E+01  0.2014E+02
   2.210  0.1140E+01  0.2015E+02
   2.220  0.1050E+01  0.2016E+02
   2.230  0.1022E+01  0.2017E+02
   2.240  0.1145E+01  0.2018E+02
   2.250  0.1233E+01  0.2020E+02
   2.260  0.1221E+01  0.2021E+02
   2.270  0.1197E+01  0.2022E+02
   2.280  0.1188E+01  0.2023E+02
   2.290  0.1179E+01  0.2024E+02
   2.300  0.1174E+01  0.2026E+02
   2.310  0.1186E+01  0.2027E+02
   2.320  0.1193E+01  0.2028E+02
   2.330  0.1200E+01  0.2029E+02
   2.340  0.1227E+01  0.2030E+02
   2.350  0.1258E+01  0.2032E+02
   2.360  0.1297E+01  0.2033E+02
   2.370  0.1416E+01  0.2034E+02
   2.380  0.1462E+01  0.2036E+02
   2.390  0.1474E+01  0.2037E+02
   2.400  0.1400E+01  0.2039E+02
   2.410  0.1216E+01  0.2040E+02
   2.420  0.1243E+01  0.2041E+02
   2.430  0.1261E+01  0.2042E+02
   2.440  0.1542E+01  0.2044E+02
   2.450  0.1662E+01  0.2045E+02
   2.460  0.1795E+01  0.2047E+02
   2.470  0.1748E+01  0.2049E+02
   2.480  0.1832E+01  0.2051E+02
   2.490  0.1900E+01  0.2052E+02
   2.500  0.1935E+01  0.2054E+02
   2.510  0.2008E+01  0.2056E+02
   2.520  0.2126E+01  0.2058E+02
   2.530  0.2232E+01  0.2061E+02
   2.540  0.2353E+01  0.2063E+02
   2.550  0.2551E+01  0.2065E+02
   2.560  0.3234E+01  0.2068E+02
   2.570  0.2877E+01  0.2071E+02
   2.580  0.3140E+01  0.2074E+02
   2.590  0.4326E+01  0.2078E+02
   2.600  0.5216E+01  0.2084E+02
   2.610  0.3766E+01  0.2088E+02
   2.620  0.3559E+01  0.2092E+02
   2.630  0.3720E+01  0.2095E+02
   2.640  0.3080E+01  0.2099E+02
   2.650  0.2936E+01  0.2102E+02
   2.660  0.2828E+01  0.2105E+02
   2.670  0.2740E+01  0.2107E+02
   2.680  0.2681E+01  0.2110E+02
   2.690  0.2621E+01  0.2113E+02
   2.700  0.2606E+01  0.2115E+02
   2.710  0.2704E+01  0.2118E+02
   2.720  0.2670E+01  0.2121E+02
   2.730  0.2632E+01  0.2123E+02
   2.740  0.2592E+01  0.2126E+02
   2.750  0.2654E+01  0.2129E+02
   2.760  0.2626E+01  0.2131E+02
   2.770  0.2487E+01  0.2134E+02
   2.780  0.2418E+01  0.2136E+02
   2.790  0.2425E+01  0.2139E+02
   2.800  0.2416E+01  0.2141E+02
   2.810  0.2379E+01  0.2144E+02
   2.820  0.2332E+01  0.2146E+02
   2.830  0.2294E+01  0.2148E+02
   2.840  0.2268E+01  0.2151E+02
   2.850  0.2250E+01  0.2153E+02
   2.860  0.2275E+01  0.2155E+02
   2.870  0.2283E+01  0.2157E+02
   2.880  0.2277E+01  0.2160E+02
   2.890  0.2261E+01  0.2162E+02
   2.900  0.2164E+01  0.2164E+02
   2.910  0.2062E+01  0.2166E+02
   2.920  0.2032E+01  0.2168E+02
   2.930  0.2008E+01  0.2170E+02
   2.940  0.1983E+01  0.2172E+02
   2.950  0.1933E+01  0.2174E+02
   2.960  0.1894E+01  0.2176E+02
   2.970  0.1874E+01  0.2178E+02
   2.980  0.1859E+01  0.2180E+02
   2.990  0.1868E+01  0.2182E+02
   3.000  0.1877E+01  0.2184E+02
   3.010  0.1880E+01  0.2186E+02
   3.020  0.1878E+01  0.2187E+02
   3.030  0.1880E+01  0.2189E+02
   3.040  0.1861E+01  0.2191E+02
   3.050  0.1862E+01  0.2193E+02
   3.060  0.1866E+01  0.2195E+02
   3.070  0.1866E+01  0.2197E+02
   3.080  0.1855E+01  0.2199E+02
   3.090  0.1855E+01  0.2200E+02
   3.100  0.1855E+01  0.2202E+02
   3.110  0.1847E+01  0.2204E+02
   3.120  0.1852E+01  0.2206E+02
   3.130  0.1851E+01  0.2208E+02
   3.140  0.1836E+01  0.2210E+02
   3.150  0.1843E+01  0.2212E+02
   3.160  0.1849E+01  0.2213E+02
   3.170  0.1851E+01  0.2215E+02
   3.180  0.1856E+01  0.2217E+02
   3.190  0.1851E+01  0.2219E+02
   3.200  0.1852E+01  0.2221E+02
   3.210  0.1856E+01  0.2223E+02
   3.220  0.1892E+01  0.2225E+02
   3.230  0.2064E+01  0.2227E+02
   3.240  0.2108E+01  0.2229E+02
   3.250  0.2158E+01  0.2231E+02
   3.260  0.2130E+01  0.2233E+02
   3.270  0.2158E+01  0.2235E+02
   3.280  0.2242E+01  0.2237E+02
   3.290  0.2322E+01  0.2240E+02
   3.300  0.2363E+01  0.2242E+02
   3.310  0.2429E+01  0.2244E+02
   3.320  0.2436E+01  0.2247E+02
   3.330  0.2431E+01  0.2249E+02
   3.340  0.2418E+01  0.2252E+02
   3.350  0.2567E+01  0.2254E+02
   3.360  0.2427E+01  0.2257E+02
   3.370  0.2297E+01  0.2259E+02
   3.380  0.2265E+01  0.2261E+02
   3.390  0.2273E+01  0.2264E+02
   3.400  0.2156E+01  0.2266E+02
   3.410  0.2057E+01  0.2268E+02
   3.420  0.2064E+01  0.2270E+02
   3.430  0.2092E+01  0.2272E+02
   3.440  0.1965E+01  0.2274E+02
   3.450  0.2001E+01  0.2276E+02
   3.460  0.2285E+01  0.2278E+02
   3.470  0.2258E+01  0.2280E+02
   3.480  0.2579E+01  0.2283E+02
   3.490  0.2710E+01  0.2286E+02
   3.500  0.2739E+01  0.2288E+02
   3.510  0.2806E+01  0.2291E+02
   3.520  0.2780E+01  0.2294E+02
   3.530  0.2889E+01  0.2297E+02
   3.540  0.3582E+01  0.2300E+02
   3.550  0.4454E+01  0.2304E+02
   3.560  0.3349E+01  0.2307E+02
   3.570  0.3211E+01  0.2311E+02
   3.580  0.3323E+01  0.2314E+02
   3.590  0.3511E+01  0.2317E+02
   3.600  0.3778E+01  0.2321E+02
   3.610  0.4337E+01  0.2325E+02
   3.620  0.4740E+01  0.2330E+02
   3.630  0.5114E+01  0.2335E+02
   3.640  0.5050E+01  0.2340E+02
   3.650  0.4630E+01  0.2345E+02
   3.660  0.4525E+01  0.2349E+02
   3.670  0.4480E+01  0.2354E+02
   3.680  0.4432E+01  0.2358E+02
   3.690  0.4361E+01  0.2363E+02
   3.700  0.4013E+01  0.2367E+02
   3.710  0.3676E+01  0.2371E+02
   3.720  0.3541E+01  0.2374E+02
   3.730  0.3411E+01  0.2378E+02
   3.740  0.3383E+01  0.2381E+02
   3.750  0.3287E+01  0.2384E+02
   3.760  0.3201E+01  0.2388E+02
   3.770  0.3311E+01  0.2391E+02
   3.780  0.3017E+01  0.2394E+02
   3.790  0.2784E+01  0.2397E+02
   3.800  0.2624E+01  0.2400E+02
   3.810  0.2604E+01  0.2402E+02
   3.820  0.2599E+01  0.2405E+02
   3.830  0.2602E+01  0.2407E+02
   3.840  0.2562E+01  0.2410E+02
   3.850  0.2530E+01  0.2413E+02
   3.860  0.2495E+01  0.2415E+02
   3.870  0.2548E+01  0.2418E+02
   3.880  0.2540E+01  0.2420E+02
   3.890  0.2500E+01  0.2423E+02
   3.900  0.2462E+01  0.2425E+02
   3.910  0.2602E+01  0.2428E+02
   3.920  0.2483E+01  0.2430E+02
   3.930  0.2422E+01  0.2433E+02
   3.940  0.2075E+01  0.2435E+02
   3.950  0.2080E+01  0.2437E+02
   3.960  0.2091E+01  0.2439E+02
   3.970  0.2111E+01  0.2441E+02
   3.980  0.2122E+01  0.2443E+02
   3.990  0.2144E+01  0.2445E+02
   4.000  0.2167E+01  0.2447E+02
   4.010  0.2242E+01  0.2450E+02
   4.020  0.2421E+01  0.2452E+02
   4.030  0.3337E+01  0.2455E+02
   4.040  0.4031E+01  0.2458E+02
   4.050  0.4049E+01  0.2462E+02
   4.060  0.3949E+01  0.2467E+02
   4.070  0.3600E+01  0.2470E+02
   4.080  0.3429E+01  0.2474E+02
   4.090  0.3132E+01  0.2477E+02
   4.100  0.2800E+01  0.2480E+02
   4.110  0.2516E+01  0.2483E+02
   4.120  0.2231E+01  0.2485E+02
   4.130  0.2038E+01  0.2487E+02
   4.140  0.2014E+01  0.2489E+02
   4.150  0.1996E+01  0.2491E+02
   4.160  0.1979E+01  0.2493E+02
   4.170  0.1961E+01  0.2495E+02
   4.180  0.1947E+01  0.2497E+02
   4.190  0.1922E+01  0.2499E+02
   4.200  0.1906E+01  0.2501E+02
   4.210  0.1900E+01  0.2503E+02
   4.220  0.1899E+01  0.2505E+02
   4.230  0.1903E+01  0.2507E+02
   4.240  0.1902E+01  0.2509E+02
   4.250  0.1901E+01  0.2510E+02
   4.260  0.1869E+01  0.2512E+02
   4.270  0.1852E+01  0.2514E+02
   4.280  0.1843E+01  0.2516E+02
   4.290  0.1837E+01  0.2518E+02
   4.300  0.1830E+01  0.2520E+02
   4.310  0.1824E+01  0.2522E+02
   4.320  0.1819E+01  0.2523E+02
   4.330  0.1813E+01  0.2525E+02
   4.340  0.1821E+01  0.2527E+02
   4.350  0.1821E+01  0.2529E+02
   4.360  0.1822E+01  0.2531E+02
   4.370  0.1819E+01  0.2532E+02
   4.380  0.1818E+01  0.2534E+02
   4.390  0.1818E+01  0.2536E+02
   4.400  0.1815E+01  0.2538E+02
   4.410  0.1814E+01  0.2540E+02
   4.420  0.1812E+01  0.2542E+02
   4.430  0.1898E+01  0.2543E+02
   4.440  0.2031E+01  0.2545E+02
   4.450  0.2092E+01  0.2548E+02
   4.460  0.2086E+01  0.2550E+02
   4.470  0.2073E+01  0.2552E+02
   4.480  0.2102E+01  0.2554E+02
   4.490  0.2095E+01  0.2556E+02
   4.500  0.2073E+01  0.2558E+02
   4.510  0.2068E+01  0.2560E+02
   4.520  0.2086E+01  0.2562E+02
   4.530  0.2105E+01  0.2564E+02
   4.540  0.2065E+01  0.2566E+02
   4.550  0.2076E+01  0.2568E+02
   4.560  0.2084E+01  0.2570E+02
   4.570  0.2096E+01  0.2573E+02
   4.580  0.2114E+01  0.2575E+02
   4.590  0.2138E+01  0.2577E+02
   4.600  0.2072E+01  0.2579E+02
   4.610  0.2073E+01  0.2581E+02
   4.620  0.2074E+01  0.2583E+02
   4.630  0.2076E+01  0.2585E+02
   4.640  0.2091E+01  0.2587E+02
   4.650  0.2116E+01  0.2589E+02
   4.660  0.2126E+01  0.2591E+02
   4.670  0.2100E+01  0.2594E+02
   4.680  0.2091E+01  0.2596E+02
   4.690  0.2086E+01  0.2598E+02
   4.700  0.2107E+01  0.2600E+02
   4.710  0.2168E+01  0.2602E+02
   4.720  0.2199E+01  0.2604E+02
   4.730  0.2171E+01  0.2606E+02
   4.740  0.2173E+01  0.2608E+02
   4.750  0.2400E+01  0.2611E+02
   4.760  0.2573E+01  0.2613E+02
   4.770  0.2762E+01  0.2616E+02
   4.780  0.3012E+01  0.2619E+02
   4.790  0.3641E+01  0.2622E+02
   4.800  0.3842E+01  0.2626E+02
   4.810  0.3778E+01  0.2630E+02
   4.820  0.3933E+01  0.2634E+02
   4.830  0.3607E+01  0.2637E+02
   4.840  0.3555E+01  0.2641E+02
   4.850  0.3457E+01  0.2645E+02
   4.860  0.3399E+01  0.2648E+02
   4.870  0.3408E+01  0.2651E+02
   4.880  0.3454E+01  0.2655E+02
   4.890  0.3493E+01  0.2658E+02
   4.900  0.3608E+01  0.2662E+02
   4.910  0.4086E+01  0.2666E+02
   4.920  0.4313E+01  0.2670E+02
   4.930  0.4032E+01  0.2674E+02
   4.940  0.4145E+01  0.2678E+02
   4.950  0.2933E+01  0.2681E+02
   4.960  0.2532E+01  0.2684E+02
   4.970  0.2581E+01  0.2687E+02
   4.980  0.2712E+01  0.2689E+02
   4.990  0.2926E+01  0.2692E+02
   5.000  0.3064E+01  0.2695E+02
   5.010  0.3173E+01  0.2698E+02
   5.020  0.3559E+01  0.2701E+02
   5.030  0.4074E+01  0.2705E+02
   5.040  0.4294E+01  0.2709E+02
   5.050  0.3416E+01  0.2713E+02
   5.060  0.3450E+01  0.2717E+02
   5.070  0.3400E+01  0.2720E+02
   5.080  0.3810E+01  0.2724E+02
   5.090  0.4119E+01  0.2728E+02
   5.100  0.4103E+01  0.2732E+02
   5.110  0.3886E+01  0.2735E+02
   5.120  0.3617E+01  0.2739E+02
   5.130  0.6176E+01  0.2743E+02
   5.140  0.8637E+01  0.2750E+02
   5.150  0.6872E+01  0.2757E+02
   5.160  0.3865E+01  0.2763E+02
   5.170  0.3189E+01  0.2766E+02
   5.180  0.3134E+01  0.2770E+02
   5.190  0.3057E+01  0.2773E+02
   5.200  0.3028E+01  0.2776E+02
   5.210  0.3049E+01  0.2779E+02
   5.220  0.3136E+01  0.2782E+02
   5.230  0.3178E+01  0.2785E+02
   5.240  0.3125E+01  0.2788E+02
   5.250  0.3055E+01  0.2791E+02
   5.260  0.3169E+01  0.2794E+02
   5.270  0.3155E+01  0.2797E+02
   5.280  0.3162E+01  0.2801E+02
   5.290  0.3206E+01  0.2804E+02
   5.300  0.3184E+01  0.2807E+02
   5.310  0.3207E+01  0.2810E+02
   5.320  0.3226E+01  0.2813E+02
   5.330  0.3266E+01  0.2817E+02
   5.340  0.3324E+01  0.2820E+02
   5.350  0.3232E+01  0.2823E+02
   5.360  0.3266E+01  0.2827E+02
   5.370  0.3262E+01  0.2830E+02
   5.380  0.3343E+01  0.2833E+02
   5.390  0.3311E+01  0.2836E+02
   5.400  0.3349E+01  0.2840E+02
   5.410  0.3363E+01  0.2843E+02
   5.420  0.3271E+01  0.2846E+02
   5.430  0.3188E+01  0.2850E+02
   5.440  0.3152E+01  0.2853E+02
   5.450  0.3153E+01  0.2856E+02
   5.460  0.3159E+01  0.2859E+02
   5.470  0.3157E+01  0.2862E+02
   5.480  0.3171E+01  0.2865E+02
   5.490  0.3190E+01  0.2869E+02
   5.500  0.3197E+01  0.2872E+02
   5.510  0.3212E+01  0.2875E+02
   5.520  0.3242E+01  0.2878E+02
   5.530  0.3307E+01  0.2881E+02
   5.540  0.3340E+01  0.2885E+02
   5.550  0.3591E+01  0.2888E+02
   5.560  0.3778E+01  0.2892E+02
   5.570  0.4125E+01  0.2896E+02
   5.580  0.4628E+01  0.2900E+02
   5.590  0.4613E+01  0.2905E+02
   5.600  0.4609E+01  0.2909E+02
   5.610  0.4565E+01  0.2914E+02
   5.620  0.4419E+01  0.2919E+02
   5.630  0.4322E+01  0.2923E+02
   5.640  0.4361E+01  0.2927E+02
   5.650  0.4486E+01  0.2932E+02
   5.660  0.4455E+01  0.2936E+02
   5.670  0.4450E+01  0.2941E+02
   5.680  0.4290E+01  0.2945E+02
   5.690  0.4400E+01  0.2949E+02
   5.700  0.4627E+01  0.2954E+02
   5.710  0.4668E+01  0.2959E+02
   5.720  0.4944E+01  0.2964E+02
   5.730  0.4998E+01  0.2968E+02
   5.740  0.5171E+01  0.2974E+02
   5.750  0.4773E+01  0.2979E+02
   5.760  0.4649E+01  0.2983E+02
   5.770  0.4505E+01  0.2988E+02
   5.780  0.4388E+01  0.2992E+02
   5.790  0.4344E+01  0.2997E+02
   5.800  0.4296E+01  0.3001E+02
   5.810  0.4220E+01  0.3005E+02
   5.820  0.4182E+01  0.3009E+02
   5.830  0.4128E+01  0.3014E+02
   5.840  0.4113E+01  0.3018E+02
   5.850  0.4114E+01  0.3022E+02
   5.860  0.4137E+01  0.3026E+02
   5.870  0.4146E+01  0.3030E+02
   5.880  0.4167E+01  0.3034E+02
   5.890  0.4419E+01  0.3038E+02
   5.900  0.4475E+01  0.3043E+02
   5.910  0.4183E+01  0.3047E+02
   5.920  0.4075E+01  0.3051E+02
   5.930  0.4049E+01  0.3056E+02
   5.940  0.4014E+01  0.3060E+02
   5.950  0.3982E+01  0.3064E+02
   5.960  0.4022E+01  0.3068E+02
   5.970  0.4039E+01  0.3072E+02
   5.980  0.4031E+01  0.3076E+02
   5.990  0.4999E+01  0.3080E+02
   6.000  0.4490E+01  0.3085E+02
   6.010  0.4062E+01  0.3089E+02
   6.020  0.4017E+01  0.3093E+02
   6.030  0.4025E+01  0.3097E+02
   6.040  0.4039E+01  0.3101E+02
   6.050  0.4038E+01  0.3105E+02
   6.060  0.4124E+01  0.3110E+02
   6.070  0.4192E+01  0.3114E+02
   6.080  0.4216E+01  0.3118E+02
   6.090  0.4254E+01  0.3122E+02
   6.100  0.4250E+01  0.3126E+02
   6.110  0.4311E+01  0.3131E+02
   6.120  0.4403E+01  0.3135E+02
   6.130  0.4377E+01  0.3139E+02
   6.140  0.4356E+01  0.3144E+02
   6.150  0.4396E+01  0.3148E+02
   6.160  0.4376E+01  0.3153E+02
   6.170  0.4389E+01  0.3157E+02
   6.180  0.4452E+01  0.3161E+02
   6.190  0.4496E+01  0.3166E+02
   6.200  0.4550E+01  0.3170E+02
   6.210  0.4636E+01  0.3175E+02
   6.220  0.4712E+01  0.3180E+02
   6.230  0.4880E+01  0.3184E+02
   6.240  0.5133E+01  0.3189E+02
   6.250  0.5290E+01  0.3195E+02
   6.260  0.5542E+01  0.3200E+02
   6.270  0.5737E+01  0.3206E+02
   6.280  0.6148E+01  0.3212E+02
   6.290  0.6886E+01  0.3218E+02
   6.300  0.7487E+01  0.3225E+02
   6.310  0.8904E+01  0.3233E+02
   6.320  0.1133E+02  0.3243E+02
   6.330  0.1656E+02  0.3254E+02
   6.340  0.7993E+01  0.3267E+02
   6.350  0.7293E+01  0.3275E+02
   6.360  0.4803E+01  0.3281E+02
   6.370  0.3376E+01  0.3285E+02
   6.380  0.3222E+01  0.3288E+02
   6.390  0.3087E+01  0.3292E+02
   6.400  0.3124E+01  0.3295E+02
   6.410  0.3030E+01  0.3298E+02
   6.420  0.2636E+01  0.3301E+02
   6.430  0.2600E+01  0.3303E+02
   6.440  0.2595E+01  0.3306E+02
   6.450  0.2911E+01  0.3309E+02
   6.460  0.2818E+01  0.3312E+02
   6.470  0.2775E+01  0.3314E+02
   6.480  0.2850E+01  0.3317E+02
   6.490  0.2959E+01  0.3320E+02
   6.500  0.2782E+01  0.3323E+02
   6.510  0.2862E+01  0.3326E+02
   6.520  0.3143E+01  0.3329E+02
   6.530  0.4122E+01  0.3332E+02
   6.540  0.4910E+01  0.3337E+02
   6.550  0.2871E+01  0.3340E+02
   6.560  0.2917E+01  0.3343E+02
   6.570  0.3172E+01  0.3346E+02
   6.580  0.3843E+01  0.3350E+02
   6.590  0.4033E+01  0.3354E+02
   6.600  0.4260E+01  0.3358E+02
   6.610  0.4829E+01  0.3363E+02
   6.620  0.4911E+01  0.3367E+02
   6.630  0.4116E+01  0.3372E+02
   6.640  0.3933E+01  0.3376E+02
   6.650  0.3848E+01  0.3380E+02
   6.660  0.3772E+01  0.3384E+02
   6.670  0.3677E+01  0.3387E+02
   6.680  0.3644E+01  0.3391E+02
   6.690  0.3603E+01  0.3395E+02
   6.700  0.3611E+01  0.3398E+02
   6.710  0.3619E+01  0.3402E+02
   6.720  0.3574E+01  0.3405E+02
   6.730  0.3586E+01  0.3409E+02
   6.740  0.3550E+01  0.3413E+02
   6.750  0.3526E+01  0.3416E+02
   6.760  0.3545E+01  0.3420E+02
   6.770  0.3514E+01  0.3423E+02
   6.780  0.3523E+01  0.3427E+02
   6.790  0.3604E+01  0.3430E+02
   6.800  0.3604E+01  0.3434E+02
   6.810  0.3647E+01  0.3438E+02
   6.820  0.3863E+01  0.3441E+02
   6.830  0.3578E+01  0.3445E+02
   6.840  0.3524E+01  0.3449E+02
   6.850  0.3498E+01  0.3452E+02
   6.860  0.3723E+01  0.3456E+02
   6.870  0.3620E+01  0.3459E+02
   6.880  0.3310E+01  0.3463E+02
   6.890  0.3291E+01  0.3466E+02
   6.900  0.3250E+01  0.3469E+02
   6.910  0.3260E+01  0.3473E+02
   6.920  0.3325E+01  0.3476E+02
   6.930  0.3486E+01  0.3479E+02
   6.940  0.5477E+01  0.3483E+02
   6.950  0.5645E+01  0.3489E+02
   6.960  0.5258E+01  0.3495E+02
   6.970  0.5003E+01  0.3500E+02
   6.980  0.5504E+01  0.3505E+02
   6.990  0.5834E+01  0.3511E+02
   7.000  0.6146E+01  0.3516E+02
   7.010  0.6133E+01  0.3523E+02
   7.020  0.6187E+01  0.3529E+02
   7.030  0.9372E+01  0.3537E+02
   7.040  0.7525E+01  0.3545E+02
   7.050  0.6252E+01  0.3552E+02
   7.060  0.5655E+01  0.3558E+02
   7.070  0.4554E+01  0.3563E+02
   7.080  0.4203E+01  0.3567E+02
   7.090  0.4179E+01  0.3571E+02
   7.100  0.4179E+01  0.3576E+02
   7.110  0.4448E+01  0.3580E+02
   7.120  0.4565E+01  0.3584E+02
   7.130  0.4308E+01  0.3589E+02
   7.140  0.4200E+01  0.3593E+02
   7.150  0.4074E+01  0.3597E+02
   7.160  0.4100E+01  0.3601E+02
   7.170  0.3924E+01  0.3605E+02
   7.180  0.3690E+01  0.3609E+02
   7.190  0.3667E+01  0.3613E+02
   7.200  0.3477E+01  0.3616E+02
   7.210  0.3476E+01  0.3620E+02
   7.220  0.3449E+01  0.3623E+02
   7.230  0.3433E+01  0.3627E+02
   7.240  0.3383E+01  0.3630E+02
   7.250  0.3379E+01  0.3634E+02
   7.260  0.3385E+01  0.3637E+02
   7.270  0.3438E+01  0.3640E+02
   7.280  0.3528E+01  0.3644E+02
   7.290  0.3353E+01  0.3647E+02
   7.300  0.3314E+01  0.3651E+02
   7.310  0.3274E+01  0.3654E+02
   7.320  0.3283E+01  0.3657E+02
   7.330  0.3303E+01  0.3661E+02
   7.340  0.3227E+01  0.3664E+02
   7.350  0.3022E+01  0.3667E+02
   7.360  0.2913E+01  0.3670E+02
   7.370  0.3023E+01  0.3673E+02
   7.380  0.2935E+01  0.3676E+02
   7.390  0.2858E+01  0.3679E+02
   7.400  0.2787E+01  0.3682E+02
   7.410  0.2794E+01  0.3685E+02
   7.420  0.2723E+01  0.3687E+02
   7.430  0.2755E+01  0.3690E+02
   7.440  0.2795E+01  0.3693E+02
   7.450  0.2730E+01  0.3696E+02
   7.460  0.2683E+01  0.3698E+02
   7.470  0.2641E+01  0.3701E+02
   7.480  0.2721E+01  0.3704E+02
   7.490  0.2640E+01  0.3706E+02
   7.500  0.2582E+01  0.3709E+02
   7.510  0.2325E+01  0.3711E+02
   7.520  0.2348E+01  0.3714E+02
   7.530  0.2376E+01  0.3716E+02
   7.540  0.2433E+01  0.3718E+02
   7.550  0.2498E+01  0.3721E+02
   7.560  0.2786E+01  0.3723E+02
   7.570  0.3088E+01  0.3726E+02
   7.580  0.3229E+01  0.3730E+02
   7.590  0.3369E+01  0.3733E+02
   7.600  0.3281E+01  0.3736E+02
   7.610  0.3390E+01  0.3740E+02
   7.620  0.3383E+01  0.3743E+02
   7.630  0.3416E+01  0.3746E+02
   7.640  0.3337E+01  0.3750E+02
   7.650  0.3383E+01  0.3753E+02
   7.660  0.3434E+01  0.3756E+02
   7.670  0.3542E+01  0.3760E+02
   7.680  0.3679E+01  0.3764E+02
   7.690  0.3804E+01  0.3767E+02
   7.700  0.3896E+01  0.3771E+02
   7.710  0.4131E+01  0.3775E+02
   7.720  0.3983E+01  0.3779E+02
   7.730  0.4059E+01  0.3784E+02
   7.740  0.4155E+01  0.3788E+02
   7.750  0.4315E+01  0.3792E+02
   7.760  0.4906E+01  0.3797E+02
   7.770  0.4966E+01  0.3801E+02
   7.780  0.4689E+01  0.3806E+02
   7.790  0.4633E+01  0.3811E+02
   7.800  0.4695E+01  0.3816E+02
   7.810  0.4853E+01  0.3820E+02
   7.820  0.4959E+01  0.3825E+02
   7.830  0.5020E+01  0.3830E+02
   7.840  0.5039E+01  0.3835E+02
   7.850  0.4879E+01  0.3840E+02
   7.860  0.4800E+01  0.3845E+02
   7.870  0.4783E+01  0.3850E+02
   7.880  0.4955E+01  0.3855E+02
   7.890  0.5022E+01  0.3860E+02
   7.900  0.6265E+01  0.3865E+02
   7.910  0.7753E+01  0.3872E+02
   7.920  0.9544E+01  0.3881E+02
   7.930  0.1144E+02  0.3891E+02
   7.940  0.7471E+01  0.3901E+02
   7.950  0.5932E+01  0.3908E+02
   7.960  0.5687E+01  0.3914E+02
   7.970  0.5106E+01  0.3919E+02
   7.980  0.4180E+01  0.3923E+02
   7.990  0.4258E+01  0.3928E+02
   8.000  0.4142E+01  0.3932E+02
   8.010  0.4196E+01  0.3936E+02
   8.020  0.4242E+01  0.3940E+02
   8.030  0.4273E+01  0.3945E+02
   8.040  0.4306E+01  0.3949E+02
   8.050  0.4339E+01  0.3953E+02
   8.060  0.4475E+01  0.3958E+02
   8.070  0.4715E+01  0.3962E+02
   8.080  0.5234E+01  0.3967E+02
   8.090  0.4796E+01  0.3972E+02
   8.100  0.4614E+01  0.3977E+02
   8.110  0.4499E+01  0.3982E+02
   8.120  0.4377E+01  0.3986E+02
   8.130  0.4519E+01  0.3991E+02
   8.140  0.4433E+01  0.3995E+02
   8.150  0.4088E+01  0.3999E+02
   8.160  0.3870E+01  0.4003E+02
   8.170  0.3850E+01  0.4007E+02
   8.180  0.5184E+01  0.4011E+02
   8.190  0.4389E+01  0.4016E+02
   8.200  0.4337E+01  0.4020E+02
   8.210  0.4241E+01  0.4024E+02
   8.220  0.4404E+01  0.4029E+02
   8.230  0.4214E+01  0.4033E+02
   8.240  0.3719E+01  0.4037E+02
   8.250  0.3684E+01  0.4041E+02
   8.260  0.3665E+01  0.4044E+02
   8.270  0.3697E+01  0.4048E+02
   8.280  0.3784E+01  0.4052E+02
   8.290  0.3973E+01  0.4056E+02
   8.300  0.3901E+01  0.4060E+02
   8.310  0.3764E+01  0.4063E+02
   8.320  0.3651E+01  0.4067E+02
   8.330  0.3606E+01  0.4071E+02
   8.340  0.3333E+01  0.4074E+02
   8.350  0.3445E+01  0.4078E+02
   8.360  0.3554E+01  0.4081E+02
   8.370  0.3803E+01  0.4085E+02
   8.380  0.4122E+01  0.4089E+02
   8.390  0.4141E+01  0.4093E+02
   8.400  0.4058E+01  0.4097E+02
   8.410  0.4141E+01  0.4102E+02
   8.420  0.3982E+01  0.4106E+02
   8.430  0.3956E+01  0.4110E+02
   8.440  0.4153E+01  0.4114E+02
   8.450  0.4498E+01  0.4118E+02
   8.460  0.4036E+01  0.4122E+02
   8.470  0.4003E+01  0.4126E+02
   8.480  0.3845E+01  0.4130E+02
   8.490  0.4000E+01  0.4134E+02
   8.500  0.3056E+01  0.4137E+02
   8.510  0.3085E+01  0.4140E+02
   8.520  0.2832E+01  0.4143E+02
   8.530  0.2851E+01  0.4146E+02
   8.540  0.2892E+01  0.4149E+02
   8.550  0.2905E+01  0.4152E+02
   8.560  0.2868E+01  0.4155E+02
   8.570  0.2837E+01  0.4158E+02
   8.580  0.2841E+01  0.4161E+02
   8.590  0.2782E+01  0.4163E+02
   8.600  0.2819E+01  0.4166E+02
   8.610  0.2714E+01  0.4169E+02
   8.620  0.2800E+01  0.4172E+02
   8.630  0.2816E+01  0.4175E+02
   8.640  0.2867E+01  0.4177E+02
   8.650  0.2803E+01  0.4180E+02
   8.660  0.2837E+01  0.4183E+02
   8.670  0.2893E+01  0.4186E+02
   8.680  0.3095E+01  0.4189E+02
   8.690  0.3259E+01  0.4192E+02
   8.700  0.3379E+01  0.4195E+02
   8.710  0.3927E+01  0.4199E+02
   8.720  0.3935E+01  0.4203E+02
   8.730  0.4299E+01  0.4207E+02
   8.740  0.4045E+01  0.4211E+02
   8.750  0.4158E+01  0.4215E+02
   8.760  0.4265E+01  0.4219E+02
   8.770  0.4453E+01  0.4224E+02
   8.780  0.4261E+01  0.4228E+02
   8.790  0.4088E+01  0.4232E+02
   8.800  0.4099E+01  0.4236E+02
   8.810  0.3989E+01  0.4240E+02
   8.820  0.3705E+01  0.4244E+02
   8.830  0.3699E+01  0.4248E+02
   8.840  0.3605E+01  0.4252E+02
   8.850  0.3500E+01  0.4255E+02
   8.860  0.3431E+01  0.4259E+02
   8.870  0.3369E+01  0.4262E+02
   8.880  0.3313E+01  0.4265E+02
   8.890  0.3260E+01  0.4269E+02
   8.900  0.3155E+01  0.4272E+02
   8.910  0.3061E+01  0.4275E+02
   8.920  0.2998E+01  0.4278E+02
   8.930  0.3120E+01  0.4281E+02
   8.940  0.3044E+01  0.4284E+02
   8.950  0.3061E+01  0.4287E+02
   8.960  0.3113E+01  0.4290E+02
   8.970  0.3319E+01  0.4294E+02
   8.980  0.3387E+01  0.4297E+02
   8.990  0.3421E+01  0.4300E+02
   9.000  0.3626E+01  0.4304E+02
   9.010  0.3623E+01  0.4307E+02
   9.020  0.3690E+01  0.4311E+02
   9.030  0.3870E+01  0.4315E+02
   9.040  0.3793E+01  0.4319E+02
   9.050  0.3837E+01  0.4323E+02
   9.060  0.3928E+01  0.4326E+02
   9.070  0.4249E+01  0.4331E+02
   9.080  0.4130E+01  0.4335E+02
   9.090  0.4226E+01  0.4339E+02
   9.100  0.4697E+01  0.4343E+02
   9.110  0.5480E+01  0.4348E+02
   9.120  0.5686E+01  0.4354E+02
   9.130  0.5774E+01  0.4360E+02
   9.140  0.6073E+01  0.4366E+02
   9.150  0.5843E+01  0.4372E+02
   9.160  0.6022E+01  0.4378E+02
   9.170  0.5454E+01  0.4383E+02
   9.180  0.5483E+01  0.4389E+02
   9.190  0.5449E+01  0.4394E+02
   9.200  0.4594E+01  0.4399E+02
   9.210  0.4927E+01  0.4404E+02
   9.220  0.4911E+01  0.4409E+02
   9.230  0.4938E+01  0.4413E+02
   9.240  0.4970E+01  0.4418E+02
   9.250  0.5375E+01  0.4424E+02
   9.260  0.5454E+01  0.4429E+02
   9.270  0.5533E+01  0.4434E+02
   9.280  0.5833E+01  0.4440E+02
   9.290  0.6518E+01  0.4446E+02
   9.300  0.7266E+01  0.4453E+02
   9.310  0.5586E+01  0.4460E+02
   9.320  0.4144E+01  0.4465E+02
   9.330  0.3391E+01  0.4469E+02
   9.340  0.3291E+01  0.4472E+02
   9.350  0.3212E+01  0.4476E+02
   9.360  0.3576E+01  0.4479E+02
   9.370  0.3508E+01  0.4482E+02
   9.380  0.3541E+01  0.4486E+02
   9.390  0.3549E+01  0.4490E+02
   9.400  0.3332E+01  0.4493E+02
   9.410  0.3258E+01  0.4496E+02
   9.420  0.3157E+01  0.4500E+02
   9.430  0.3127E+01  0.4503E+02
   9.440  0.3097E+01  0.4506E+02
   9.450  0.3125E+01  0.4509E+02
   9.460  0.3431E+01  0.4512E+02
   9.470  0.3734E+01  0.4516E+02
   9.480  0.3960E+01  0.4519E+02
   9.490  0.3962E+01  0.4523E+02
   9.500  0.3625E+01  0.4527E+02
   9.510  0.3539E+01  0.4531E+02
   9.520  0.3272E+01  0.4534E+02
   9.530  0.3152E+01  0.4537E+02
   9.540  0.3010E+01  0.4540E+02
   9.550  0.2874E+01  0.4543E+02
   9.560  0.2633E+01  0.4546E+02
   9.570  0.2470E+01  0.4549E+02
   9.580  0.2561E+01  0.4551E+02
   9.590  0.2486E+01  0.4554E+02
   9.600  0.2498E+01  0.4556E+02
   9.610  0.2665E+01  0.4559E+02
   9.620  0.2831E+01  0.4562E+02
   9.630  0.2807E+01  0.4564E+02
   9.640  0.2800E+01  0.4567E+02
   9.650  0.2856E+01  0.4570E+02
   9.660  0.2917E+01  0.4573E+02
   9.670  0.2802E+01  0.4576E+02
   9.680  0.2710E+01  0.4579E+02
   9.690  0.2656E+01  0.4581E+02
   9.700  0.2879E+01  0.4584E+02
   9.710  0.2803E+01  0.4587E+02
   9.720  0.2760E+01  0.4590E+02
   9.730  0.2718E+01  0.4592E+02
   9.740  0.2754E+01  0.4595E+02
   9.750  0.2884E+01  0.4598E+02
   9.760  0.2832E+01  0.4601E+02
   9.770  0.3082E+01  0.4604E+02
   9.780  0.2802E+01  0.4607E+02
   9.790  0.2705E+01  0.4609E+02
   9.800  0.2684E+01  0.4612E+02
   9.810  0.2686E+01  0.4615E+02
   9.820  0.2754E+01  0.4617E+02
   9.830  0.2994E+01  0.4620E+02
   9.840  0.2888E+01  0.4623E+02
   9.850  0.2876E+01  0.4626E+02
   9.860  0.2842E+01  0.4629E+02
   9.870  0.2855E+01  0.4632E+02
   9.880  0.3049E+01  0.4635E+02
   9.890  0.3223E+01  0.4638E+02
   9.900  0.3388E+01  0.4641E+02
   9.910  0.3307E+01  0.4645E+02
   9.920  0.3446E+01  0.4648E+02
   9.930  0.3684E+01  0.4652E+02
   9.940  0.4328E+01  0.4656E+02
   9.950  0.4223E+01  0.4660E+02
   9.960  0.4136E+01  0.4664E+02
   9.970  0.4172E+01  0.4668E+02
   9.980  0.4426E+01  0.4673E+02
   9.990  0.4870E+01  0.4677E+02
  10.000  0.5037E+01  0.4682E+02
  10.010  0.5366E+01  0.4688E+02
  10.020  0.5193E+01  0.4693E+02
  10.030  0.4571E+01  0.4698E+02
  10.040  0.4644E+01  0.4702E+02
  10.050  0.4609E+01  0.4707E+02
  10.060  0.4484E+01  0.4712E+02
  10.070  0.4441E+01  0.4716E+02
  10.080  0.4435E+01  0.4721E+02
  10.090  0.4367E+01  0.4725E+02
  10.100  0.4642E+01  0.4730E+02
  10.110  0.4433E+01  0.4734E+02
  10.120  0.4367E+01  0.4738E+02
  10.130  0.4403E+01  0.4743E+02
  10.140  0.4326E+01  0.4747E+02
  10.150  0.4210E+01  0.4751E+02
  10.160  0.4114E+01  0.4756E+02
  10.170  0.3995E+01  0.4760E+02
  10.180  0.4019E+01  0.4764E+02
  10.190  0.4130E+01  0.4768E+02
  10.200  0.4355E+01  0.4772E+02
  10.210  0.4417E+01  0.4777E+02
  10.220  0.5278E+01  0.4781E+02
  10.230  0.5489E+01  0.4787E+02
  10.240  0.5974E+01  0.4792E+02
  10.250  0.6314E+01  0.4799E+02
  10.260  0.6543E+01  0.4805E+02
  10.270  0.7926E+01  0.4812E+02
  10.280  0.8195E+01  0.4820E+02
  10.290  0.6689E+01  0.4828E+02
  10.300  0.6162E+01  0.4834E+02
  10.310  0.5893E+01  0.4840E+02
  10.320  0.5873E+01  0.4846E+02
  10.330  0.6296E+01  0.4852E+02
  10.340  0.6480E+01  0.4859E+02
  10.350  0.6481E+01  0.4865E+02
  10.360  0.6574E+01  0.4871E+02
  10.370  0.6433E+01  0.4878E+02
  10.380  0.6815E+01  0.4885E+02
  10.390  0.5919E+01  0.4891E+02
  10.400  0.5567E+01  0.4897E+02
  10.410  0.5266E+01  0.4902E+02
  10.420  0.5228E+01  0.4908E+02
  10.430  0.4930E+01  0.4913E+02
  10.440  0.4733E+01  0.4917E+02
  10.450  0.4457E+01  0.4922E+02
  10.460  0.4151E+01  0.4926E+02
  10.470  0.3844E+01  0.4931E+02
  10.480  0.3554E+01  0.4934E+02
  10.490  0.3528E+01  0.4938E+02
  10.500  0.3541E+01  0.4941E+02
  10.510  0.3435E+01  0.4945E+02
  10.520  0.3547E+01  0.4948E+02
  10.530  0.3719E+01  0.4952E+02
  10.540  0.3861E+01  0.4956E+02
  10.550  0.4322E+01  0.4960E+02
  10.560  0.4572E+01  0.4964E+02
  10.570  0.4474E+01  0.4969E+02
  10.580  0.4489E+01  0.4973E+02
  10.590  0.4557E+01  0.4978E+02
  10.600  0.4417E+01  0.4982E+02
  10.610  0.4515E+01  0.4987E+02
  10.620  0.4411E+01  0.4991E+02
  10.630  0.4349E+01  0.4995E+02
  10.640  0.4350E+01  0.5000E+02
  10.650  0.4174E+01  0.5004E+02
  10.660  0.4187E+01  0.5008E+02
  10.670  0.4175E+01  0.5012E+02
  10.680  0.4063E+01  0.5017E+02
  10.690  0.4040E+01  0.5021E+02
  10.700  0.4080E+01  0.5025E+02
  10.710  0.4253E+01  0.5029E+02
  10.720  0.4350E+01  0.5033E+02
  10.730  0.4372E+01  0.5037E+02
  10.740  0.4530E+01  0.5042E+02
  10.750  0.4517E+01  0.5046E+02
  10.760  0.4780E+01  0.5051E+02
  10.770  0.4683E+01  0.5056E+02
  10.780  0.4567E+01  0.5061E+02
  10.790  0.4649E+01  0.5065E+02
  10.800  0.4557E+01  0.5070E+02
  10.810  0.4663E+01  0.5074E+02
  10.820  0.4572E+01  0.5079E+02
  10.830  0.4495E+01  0.5084E+02
  10.840  0.4509E+01  0.5088E+02
  10.850  0.4367E+01  0.5093E+02
  10.860  0.4197E+01  0.5097E+02
  10.870  0.4625E+01  0.5101E+02
  10.880  0.5016E+01  0.5106E+02
  10.890  0.5565E+01  0.5112E+02
  10.900  0.5070E+01  0.5117E+02
  10.910  0.4812E+01  0.5122E+02
  10.920  0.4891E+01  0.5127E+02
  10.930  0.4841E+01  0.5132E+02
  10.940  0.4813E+01  0.5137E+02
  10.950  0.4799E+01  0.5142E+02
  10.960  0.4927E+01  0.5146E+02
  10.970  0.5544E+01  0.5151E+02
  10.980  0.6150E+01  0.5158E+02
  10.990  0.6719E+01  0.5164E+02
  11.000  0.7708E+01  0.5171E+02
  11.010  0.7871E+01  0.5179E+02
  11.020  0.8498E+01  0.5188E+02
  11.030  0.8882E+01  0.5196E+02
  11.040  0.7223E+01  0.5205E+02
  11.050  0.5445E+01  0.5211E+02
  11.060  0.5478E+01  0.5216E+02
  11.070  0.5199E+01  0.5221E+02
  11.080  0.4931E+01  0.5226E+02
  11.090  0.5189E+01  0.5231E+02
  11.100  0.5326E+01  0.5237E+02
  11.110  0.5357E+01  0.5242E+02
  11.120  0.5575E+01  0.5247E+02
  11.130  0.6076E+01  0.5253E+02
  11.140  0.6666E+01  0.5260E+02
  11.150  0.7813E+01  0.5267E+02
  11.160  0.7122E+01  0.5274E+02
  11.170  0.7423E+01  0.5282E+02
  11.180  0.6604E+01  0.5288E+02
  11.190  0.6261E+01  0.5295E+02
  11.200  0.6063E+01  0.5301E+02
  11.210  0.5580E+01  0.5307E+02
  11.220  0.5010E+01  0.5312E+02
  11.230  0.4579E+01  0.5317E+02
  11.240  0.4986E+01  0.5322E+02
  11.250  0.4216E+01  0.5326E+02
  11.260  0.4574E+01  0.5330E+02
  11.270  0.5439E+01  0.5335E+02
  11.280  0.6105E+01  0.5341E+02
  11.290  0.5559E+01  0.5347E+02
  11.300  0.5405E+01  0.5353E+02
  11.310  0.5493E+01  0.5358E+02
  11.320  0.5309E+01  0.5364E+02
  11.330  0.5554E+01  0.5369E+02
  11.340  0.5457E+01  0.5375E+02
  11.350  0.5119E+01  0.5380E+02
  11.360  0.5092E+01  0.5385E+02
  11.370  0.5000E+01  0.5390E+02
  11.380  0.4955E+01  0.5395E+02
  11.390  0.4951E+01  0.5400E+02
  11.400  0.4891E+01  0.5405E+02
  11.410  0.4793E+01  0.5410E+02
  11.420  0.4864E+01  0.5414E+02
  11.430  0.5273E+01  0.5419E+02
  11.440  0.5522E+01  0.5425E+02
  11.450  0.5780E+01  0.5431E+02
  11.460  0.4984E+01  0.5436E+02
  11.470  0.4944E+01  0.5441E+02
  11.480  0.5025E+01  0.5446E+02
  11.490  0.5890E+01  0.5451E+02
  11.500  0.4869E+01  0.5456E+02
  11.510  0.4921E+01  0.5461E+02
  11.520  0.5044E+01  0.5466E+02
  11.530  0.4700E+01  0.5471E+02
  11.540  0.4548E+01  0.5475E+02
  11.550  0.4479E+01  0.5480E+02
  11.560  0.4500E+01  0.5485E+02
  11.570  0.4471E+01  0.5489E+02
  11.580  0.4366E+01  0.5493E+02
  11.590  0.4396E+01  0.5498E+02
  11.600  0.4821E+01  0.5502E+02
  11.610  0.4998E+01  0.5508E+02
  11.620  0.5110E+01  0.5513E+02
  11.630  0.5406E+01  0.5518E+02
  11.640  0.5303E+01  0.5524E+02
  11.650  0.4015E+01  0.5528E+02
  11.660  0.3965E+01  0.5532E+02
  11.670  0.4229E+01  0.5536E+02
  11.680  0.3907E+01  0.5540E+02
  11.690  0.4389E+01  0.5544E+02
  11.700  0.4045E+01  0.5548E+02
  11.710  0.3617E+01  0.5552E+02
  11.720  0.3585E+01  0.5556E+02
  11.730  0.3651E+01  0.5559E+02
  11.740  0.3658E+01  0.5563E+02
  11.750  0.3705E+01  0.5567E+02
  11.760  0.3977E+01  0.5571E+02
  11.770  0.4473E+01  0.5575E+02
  11.780  0.4390E+01  0.5579E+02
  11.790  0.4810E+01  0.5584E+02
  11.800  0.4395E+01  0.5589E+02
  11.810  0.4387E+01  0.5593E+02
  11.820  0.4458E+01  0.5597E+02
  11.830  0.4565E+01  0.5602E+02
  11.840  0.4452E+01  0.5607E+02
  11.850  0.4833E+01  0.5611E+02
  11.860  0.4904E+01  0.5616E+02
  11.870  0.4659E+01  0.5621E+02
  11.880  0.4335E+01  0.5626E+02
  11.890  0.4031E+01  0.5630E+02
  11.900  0.3988E+01  0.5634E+02
  11.910  0.3950E+01  0.5638E+02
  11.920  0.3986E+01  0.5642E+02
  11.930  0.3931E+01  0.5646E+02
  11.940  0.3891E+01  0.5650E+02
  11.950  0.4113E+01  0.5653E+02
  11.960  0.4046E+01  0.5658E+02
  11.970  0.3989E+01  0.5662E+02
  11.980  0.3964E+01  0.5666E+02
  11.990  0.4049E+01  0.5670E+02
  12.000  0.3731E+01  0.5674E+02
  12.010  0.3643E+01  0.5677E+02
  12.020  0.3972E+01  0.5681E+02
  12.030  0.4258E+01  0.5685E+02
  12.040  0.4522E+01  0.5689E+02
  12.050  0.4426E+01  0.5694E+02
  12.060  0.4306E+01  0.5698E+02
  12.070  0.5072E+01  0.5703E+02
  12.080  0.4872E+01  0.5708E+02
  12.090  0.4843E+01  0.5712E+02
  12.100  0.4228E+01  0.5717E+02
  12.110  0.4001E+01  0.5721E+02
  12.120  0.3759E+01  0.5725E+02
  12.130  0.3639E+01  0.5729E+02
  12.140  0.3181E+01  0.5732E+02
  12.150  0.3035E+01  0.5735E+02
  12.160  0.2911E+01  0.5738E+02
  12.170  0.2753E+01  0.5741E+02
  12.180  0.2697E+01  0.5743E+02
  12.190  0.2654E+01  0.5746E+02
  12.200  0.2622E+01  0.5749E+02
  12.210  0.2634E+01  0.5751E+02
  12.220  0.2620E+01  0.5754E+02
  12.230  0.2590E+01  0.5757E+02
  12.240  0.2720E+01  0.5759E+02
  12.250  0.2732E+01  0.5762E+02
  12.260  0.2300E+01  0.5765E+02
  12.270  0.2270E+01  0.5767E+02
  12.280  0.2431E+01  0.5769E+02
  12.290  0.2488E+01  0.5772E+02
  12.300  0.2246E+01  0.5774E+02
  12.310  0.2195E+01  0.5776E+02
  12.320  0.2140E+01  0.5778E+02
  12.330  0.2081E+01  0.5780E+02
  12.340  0.2022E+01  0.5782E+02
  12.350  0.1943E+01  0.5784E+02
  12.360  0.2013E+01  0.5786E+02
  12.370  0.2135E+01  0.5788E+02
  12.380  0.2258E+01  0.5791E+02
  12.390  0.2121E+01  0.5793E+02
  12.400  0.1879E+01  0.5795E+02
  12.410  0.1819E+01  0.5797E+02
  12.420  0.1725E+01  0.5798E+02
  12.430  0.1653E+01  0.5800E+02
  12.440  0.1609E+01  0.5802E+02
  12.450  0.1573E+01  0.5803E+02
  12.460  0.1552E+01  0.5805E+02
  12.470  0.1536E+01  0.5806E+02
  12.480  0.1524E+01  0.5808E+02
  12.490  0.1517E+01  0.5809E+02
  12.500  0.1505E+01  0.5811E+02
  12.510  0.1494E+01  0.5812E+02
  12.520  0.1478E+01  0.5814E+02
  12.530  0.1462E+01  0.5815E+02
  12.540  0.1478E+01  0.5817E+02
  12.550  0.1499E+01  0.5818E+02
  12.560  0.1540E+01  0.5820E+02
  12.570  0.1584E+01  0.5821E+02
  12.580  0.1615E+01  0.5823E+02
  12.590  0.1637E+01  0.5825E+02
  12.600  0.1658E+01  0.5826E+02
  12.610  0.1679E+01  0.5828E+02
  12.620  0.1715E+01  0.5830E+02
  12.630  0.1779E+01  0.5831E+02
  12.640  0.1923E+01  0.5833E+02
  12.650  0.1887E+01  0.5835E+02
  12.660  0.2008E+01  0.5837E+02
  12.670  0.2030E+01  0.5839E+02
  12.680  0.2012E+01  0.5841E+02
  12.690  0.2024E+01  0.5843E+02
  12.700  0.2194E+01  0.5845E+02
  12.710  0.2243E+01  0.5847E+02
  12.720  0.2260E+01  0.5850E+02
  12.730  0.2303E+01  0.5852E+02
  12.740  0.2555E+01  0.5854E+02
  12.750  0.2972E+01  0.5857E+02
  12.760  0.3114E+01  0.5860E+02
  12.770  0.2799E+01  0.5863E+02
  12.780  0.2710E+01  0.5866E+02
  12.790  0.2437E+01  0.5869E+02
  12.800  0.2177E+01  0.5871E+02
  12.810  0.1982E+01  0.5873E+02
  12.820  0.1885E+01  0.5875E+02
  12.830  0.1820E+01  0.5877E+02
  12.840  0.1823E+01  0.5879E+02
  12.850  0.1842E+01  0.5880E+02
  12.860  0.2349E+01  0.5882E+02
  12.870  0.1882E+01  0.5884E+02
  12.880  0.2302E+01  0.5887E+02
  12.890  0.2375E+01  0.5889E+02
  12.900  0.2322E+01  0.5891E+02
  12.910  0.2333E+01  0.5894E+02
  12.920  0.2352E+01  0.5896E+02
  12.930  0.2364E+01  0.5898E+02
  12.940  0.2454E+01  0.5901E+02
  12.950  0.2453E+01  0.5903E+02
  12.960  0.2305E+01  0.5906E+02
  12.970  0.2232E+01  0.5908E+02
  12.980  0.2286E+01  0.5910E+02
  12.990  0.2437E+01  0.5913E+02
  13.000  0.2796E+01  0.5915E+02
  13.010  0.2941E+01  0.5918E+02
  13.020  0.3024E+01  0.5921E+02
  13.030  0.3119E+01  0.5924E+02
  13.040  0.2946E+01  0.5927E+02
  13.050  0.2590E+01  0.5930E+02
  13.060  0.2477E+01  0.5932E+02
  13.070  0.2540E+01  0.5935E+02
  13.080  0.2200E+01  0.5937E+02
  13.090  0.2068E+01  0.5939E+02
  13.100  0.1973E+01  0.5941E+02
  13.110  0.1875E+01  0.5943E+02
  13.120  0.1793E+01  0.5945E+02
  13.130  0.1721E+01  0.5947E+02
  13.140  0.1649E+01  0.5949E+02
  13.150  0.1623E+01  0.5950E+02
  13.160  0.1582E+01  0.5952E+02
  13.170  0.1568E+01  0.5953E+02
  13.180  0.1580E+01  0.5955E+02
  13.190  0.1351E+01  0.5957E+02
  13.200  0.1229E+01  0.5958E+02
  13.210  0.1112E+01  0.5959E+02
  13.220  0.1080E+01  0.5960E+02
  13.230  0.1018E+01  0.5961E+02
  13.240  0.9911E+00  0.5962E+02
  13.250  0.9929E+00  0.5963E+02
  13.260  0.1008E+01  0.5964E+02
  13.270  0.1001E+01  0.5965E+02
  13.280  0.1010E+01  0.5966E+02
  13.290  0.1005E+01  0.5967E+02
  13.300  0.9747E+00  0.5968E+02
  13.310  0.9480E+00  0.5969E+02
  13.320  0.8644E+00  0.5970E+02
  13.330  0.8461E+00  0.5971E+02
  13.340  0.8152E+00  0.5972E+02
  13.350  0.7778E+00  0.5972E+02
  13.360  0.7405E+00  0.5973E+02
  13.370  0.6993E+00  0.5974E+02
  13.380  0.6636E+00  0.5975E+02
  13.390  0.6251E+00  0.5975E+02
  13.400  0.5865E+00  0.5976E+02
  13.410  0.5178E+00  0.5976E+02
  13.420  0.5160E+00  0.5977E+02
  13.430  0.5527E+00  0.5978E+02
  13.440  0.5145E+00  0.5978E+02
  13.450  0.4766E+00  0.5979E+02
  13.460  0.4806E+00  0.5979E+02
  13.470  0.4649E+00  0.5979E+02
  13.480  0.4522E+00  0.5980E+02
  13.490  0.4553E+00  0.5980E+02
  13.500  0.4717E+00  0.5981E+02
  13.510  0.5104E+00  0.5981E+02
  13.520  0.5518E+00  0.5982E+02
  13.530  0.5931E+00  0.5982E+02
  13.540  0.6344E+00  0.5983E+02
  13.550  0.9233E+00  0.5984E+02
  13.560  0.7335E+00  0.5985E+02
  13.570  0.7238E+00  0.5985E+02
  13.580  0.7142E+00  0.5986E+02
  13.590  0.6263E+00  0.5987E+02
  13.600  0.5777E+00  0.5987E+02
  13.610  0.4974E+00  0.5988E+02
  13.620  0.4836E+00  0.5988E+02
  13.630  0.4698E+00  0.5989E+02
  13.640  0.4549E+00  0.5989E+02
  13.650  0.4402E+00  0.5990E+02
  13.660  0.4305E+00  0.5990E+02
  13.670  0.4218E+00  0.5991E+02
  13.680  0.4130E+00  0.5991E+02
  13.690  0.4157E+00  0.5992E+02
  13.700  0.4187E+00  0.5992E+02
  13.710  0.4218E+00  0.5992E+02
  13.720  0.4249E+00  0.5993E+02
  13.730  0.3445E+00  0.5993E+02
  13.740  0.3406E+00  0.5994E+02
  13.750  0.3314E+00  0.5994E+02
  13.760  0.3222E+00  0.5994E+02
  13.770  0.3129E+00  0.5995E+02
  13.780  0.3037E+00  0.5995E+02
  13.790  0.2945E+00  0.5995E+02
  13.800  0.2853E+00  0.5995E+02
  13.810  0.2760E+00  0.5996E+02
  13.820  0.2905E+00  0.5996E+02
  13.830  0.3167E+00  0.5996E+02
  13.840  0.3056E+00  0.5997E+02
  13.850  0.2945E+00  0.5997E+02
  13.860  0.2835E+00  0.5997E+02
  13.870  0.2740E+00  0.5997E+02
  13.880  0.2500E+00  0.5998E+02
  13.890  0.2306E+00  0.5998E+02
  13.900  0.2277E+00  0.5998E+02
  13.910  0.2247E+00  0.5998E+02
  13.920  0.2218E+00  0.5999E+02
  13.930  0.2188E+00  0.5999E+02
  13.940  0.2435E+00  0.5999E+02
  13.950  0.2549E+00  0.5999E+02
  13.960  0.2052E+00  0.6000E+02
  13.970  0.1555E+00  0.6000E+02
  13.980  0.1056E+00  0.6000E+02
  13.990  0.5811E-01  0.6000E+02
  14.000  0.1059E-01  0.6000E+02
  14.010  0.0000E+00  0.6000E+02
  14.020  0.0000E+00  0.6000E+02
  14.030  0.0000E+00  0.6000E+02
  14.040  0.0000E+00  0.6000E+02
  14.050  0.0000E+00  0.6000E+02
  14.060  0.0000E+00  0.6000E+02
  14.070  0.0000E+00  0.6000E+02
  14.080  0.0000E+00  0.6000E+02
  14.090  0.0000E+00  0.6000E+02
  14.100  0.0000E+00  0.6000E+02
  14.110  0.0000E+00  0.6000E+02
  14.120  0.0000E+00  0.6000E+02
  14.130  0.0000E+00  0.6000E+02
  14.140  0.0000E+00  0.6000E+02
  14.150  0.0000E+00  0.6000E+02
  14.160  0.0000E+00  0.6000E+02
  14.170  0.0000E+00  0.6000E+02
  14.180  0.0000E+00  0.6000E+02
  14.190  0.0000E+00  0.6000E+02
  14.200  0.0000E+00  0.6000E+02
  14.210  0.0000E+00  0.6000E+02
  14.220  0.0000E+00  0.6000E+02
  14.230  0.0000E+00  0.6000E+02
  14.240  0.0000E+00  0.6000E+02
  14.250  0.0000E+00  0.6000E+02
  14.260  0.0000E+00  0.6000E+02
  14.270  0.0000E+00  0.6000E+02
  14.280  0.0000E+00  0.6000E+02
  14.290  0.0000E+00  0.6000E+02
  14.300  0.0000E+00  0.6000E+02
  14.310  0.0000E+00  0.6000E+02
  14.320  0.0000E+00  0.6000E+02
  14.330  0.0000E+00  0.6000E+02
  14.340  0.0000E+00  0.6000E+02
  14.350  0.0000E+00  0.6000E+02
  14.360  0.0000E+00  0.6000E+02
  14.370  0.0000E+00  0.6000E+02
  14.380  0.0000E+00  0.6000E+02
  14.390  0.0000E+00  0.6000E+02
  14.400  0.0000E+00  0.6000E+02
  14.410  0.0000E+00  0.6000E+02
  14.420  0.0000E+00  0.6000E+02
  14.430  0.0000E+00  0.6000E+02
  14.440  0.0000E+00  0.6000E+02
  14.450  0.0000E+00  0.6000E+02
  14.460  0.0000E+00  0.6000E+02
  14.470  0.0000E+00  0.6000E+02
  14.480  0.0000E+00  0.6000E+02
  14.490  0.0000E+00  0.6000E+02
  14.500  0.0000E+00  0.6000E+02
  14.510  0.0000E+00  0.6000E+02
  14.520  0.0000E+00  0.6000E+02
  14.530  0.0000E+00  0.6000E+02
  14.540  0.0000E+00  0.6000E+02
  14.550  0.0000E+00  0.6000E+02
  14.560  0.0000E+00  0.6000E+02
  14.570  0.0000E+00  0.6000E+02
  14.580  0.0000E+00  0.6000E+02
  14.590  0.0000E+00  0.6000E+02
  14.600  0.0000E+00  0.6000E+02
  14.610  0.0000E+00  0.6000E+02
  14.620  0.0000E+00  0.6000E+02
  14.630  0.0000E+00  0.6000E+02
  14.640  0.0000E+00  0.6000E+02
  14.650  0.0000E+00  0.6000E+02
  14.660  0.0000E+00  0.6000E+02
  14.670  0.0000E+00  0.6000E+02
  14.680  0.0000E+00  0.6000E+02
  14.690  0.0000E+00  0.6000E+02
  14.700  0.0000E+00  0.6000E+02
  14.710  0.0000E+00  0.6000E+02
  14.720  0.0000E+00  0.6000E+02
  14.730  0.0000E+00  0.6000E+02
  14.740  0.0000E+00  0.6000E+02
  14.750  0.0000E+00  0.6000E+02
  14.760  0.0000E+00  0.6000E+02
  14.770  0.0000E+00  0.6000E+02
  14.780  0.0000E+00  0.6000E+02
  14.790  0.0000E+00  0.6000E+02
  14.800  0.0000E+00  0.6000E+02
  14.810  0.0000E+00  0.6000E+02
  14.820  0.0000E+00  0.6000E+02
  14.830  0.0000E+00  0.6000E+02
  14.840  0.0000E+00  0.6000E+02
  14.850  0.0000E+00  0.6000E+02
  14.860  0.0000E+00  0.6000E+02
  14.870  0.0000E+00  0.6000E+02
  14.880  0.0000E+00  0.6000E+02
  14.890  0.0000E+00  0.6000E+02
  14.900  0.0000E+00  0.6000E+02
  14.910  0.0000E+00  0.6000E+02
  14.920  0.0000E+00  0.6000E+02
  14.930  0.0000E+00  0.6000E+02
  14.940  0.0000E+00  0.6000E+02
  14.950  0.0000E+00  0.6000E+02
  14.960  0.0000E+00  0.6000E+02
  14.970  0.0000E+00  0.6000E+02
  14.980  0.0000E+00  0.6000E+02
  14.990  0.0000E+00  0.6000E+02
  15.000  0.0000E+00  0.6000E+02
