#  E (eV)   dos(E)     Int dos(E) EFermi =    6.137 eV
 -15.000  0.0000E+00  0.0000E+00
 -14.990  0.0000E+00  0.0000E+00
 -14.980  0.0000E+00  0.0000E+00
 -14.970  0.0000E+00  0.0000E+00
 -14.960  0.0000E+00  0.0000E+00
 -14.950  0.0000E+00  0.0000E+00
 -14.940  0.0000E+00  0.0000E+00
 -14.930  0.0000E+00  0.0000E+00
 -14.920  0.0000E+00  0.0000E+00
 -14.910  0.0000E+00  0.0000E+00
 -14.900  0.0000E+00  0.0000E+00
 -14.890  0.0000E+00  0.0000E+00
 -14.880  0.0000E+00  0.0000E+00
 -14.870  0.0000E+00  0.0000E+00
 -14.860  0.0000E+00  0.0000E+00
 -14.850  0.0000E+00  0.0000E+00
 -14.840  0.0000E+00  0.0000E+00
 -14.830  0.0000E+00  0.0000E+00
 -14.820  0.0000E+00  0.0000E+00
 -14.810  0.0000E+00  0.0000E+00
 -14.800  0.0000E+00  0.0000E+00
 -14.790  0.0000E+00  0.0000E+00
 -14.780  0.0000E+00  0.0000E+00
 -14.770  0.0000E+00  0.0000E+00
 -14.760  0.0000E+00  0.0000E+00
 -14.750  0.0000E+00  0.0000E+00
 -14.740  0.0000E+00  0.0000E+00
 -14.730  0.0000E+00  0.0000E+00
 -14.720  0.0000E+00  0.0000E+00
 -14.710  0.0000E+00  0.0000E+00
 -14.700  0.0000E+00  0.0000E+00
 -14.690  0.0000E+00  0.0000E+00
 -14.680  0.0000E+00  0.0000E+00
 -14.670  0.0000E+00  0.0000E+00
 -14.660  0.0000E+00  0.0000E+00
 -14.650  0.0000E+00  0.0000E+00
 -14.640  0.0000E+00  0.0000E+00
 -14.630  0.0000E+00  0.0000E+00
 -14.620  0.0000E+00  0.0000E+00
 -14.610  0.0000E+00  0.0000E+00
 -14.600  0.0000E+00  0.0000E+00
 -14.590  0.0000E+00  0.0000E+00
 -14.580  0.0000E+00  0.0000E+00
 -14.570  0.0000E+00  0.0000E+00
 -14.560  0.0000E+00  0.0000E+00
 -14.550  0.0000E+00  0.0000E+00
 -14.540  0.0000E+00  0.0000E+00
 -14.530  0.0000E+00  0.0000E+00
 -14.520  0.0000E+00  0.0000E+00
 -14.510  0.0000E+00  0.0000E+00
 -14.500  0.0000E+00  0.0000E+00
 -14.490  0.0000E+00  0.0000E+00
 -14.480  0.0000E+00  0.0000E+00
 -14.470  0.0000E+00  0.0000E+00
 -14.460  0.0000E+00  0.0000E+00
 -14.450  0.0000E+00  0.0000E+00
 -14.440  0.0000E+00  0.0000E+00
 -14.430  0.0000E+00  0.0000E+00
 -14.420  0.0000E+00  0.0000E+00
 -14.410  0.0000E+00  0.0000E+00
 -14.400  0.0000E+00  0.0000E+00
 -14.390  0.0000E+00  0.0000E+00
 -14.380  0.0000E+00  0.0000E+00
 -14.370  0.0000E+00  0.0000E+00
 -14.360  0.0000E+00  0.0000E+00
 -14.350  0.0000E+00  0.0000E+00
 -14.340  0.0000E+00  0.0000E+00
 -14.330  0.0000E+00  0.0000E+00
 -14.320  0.0000E+00  0.0000E+00
 -14.310  0.0000E+00  0.0000E+00
 -14.300  0.0000E+00  0.0000E+00
 -14.290  0.0000E+00  0.0000E+00
 -14.280  0.0000E+00  0.0000E+00
 -14.270  0.0000E+00  0.0000E+00
 -14.260  0.0000E+00  0.0000E+00
 -14.250  0.0000E+00  0.0000E+00
 -14.240  0.0000E+00  0.0000E+00
 -14.230  0.0000E+00  0.0000E+00
 -14.220  0.0000E+00  0.0000E+00
 -14.210  0.0000E+00  0.0000E+00
 -14.200  0.0000E+00  0.0000E+00
 -14.190  0.0000E+00  0.0000E+00
 -14.180  0.0000E+00  0.0000E+00
 -14.170  0.0000E+00  0.0000E+00
 -14.160  0.0000E+00  0.0000E+00
 -14.150  0.0000E+00  0.0000E+00
 -14.140  0.0000E+00  0.0000E+00
 -14.130  0.0000E+00  0.0000E+00
 -14.120  0.0000E+00  0.0000E+00
 -14.110  0.0000E+00  0.0000E+00
 -14.100  0.0000E+00  0.0000E+00
 -14.090  0.0000E+00  0.0000E+00
 -14.080  0.0000E+00  0.0000E+00
 -14.070  0.0000E+00  0.0000E+00
 -14.060  0.0000E+00  0.0000E+00
 -14.050  0.0000E+00  0.0000E+00
 -14.040  0.0000E+00  0.0000E+00
 -14.030  0.0000E+00  0.0000E+00
 -14.020  0.0000E+00  0.0000E+00
 -14.010  0.0000E+00  0.0000E+00
 -14.000  0.0000E+00  0.0000E+00
 -13.990  0.0000E+00  0.0000E+00
 -13.980  0.0000E+00  0.0000E+00
 -13.970  0.0000E+00  0.0000E+00
 -13.960  0.0000E+00  0.0000E+00
 -13.950  0.0000E+00  0.0000E+00
 -13.940  0.0000E+00  0.0000E+00
 -13.930  0.0000E+00  0.0000E+00
 -13.920  0.0000E+00  0.0000E+00
 -13.910  0.0000E+00  0.0000E+00
 -13.900  0.0000E+00  0.0000E+00
 -13.890  0.0000E+00  0.0000E+00
 -13.880  0.0000E+00  0.0000E+00
 -13.870  0.0000E+00  0.0000E+00
 -13.860  0.0000E+00  0.0000E+00
 -13.850  0.0000E+00  0.0000E+00
 -13.840  0.0000E+00  0.0000E+00
 -13.830  0.0000E+00  0.0000E+00
 -13.820  0.0000E+00  0.0000E+00
 -13.810  0.0000E+00  0.0000E+00
 -13.800  0.0000E+00  0.0000E+00
 -13.790  0.0000E+00  0.0000E+00
 -13.780  0.0000E+00  0.0000E+00
 -13.770  0.0000E+00  0.0000E+00
 -13.760  0.0000E+00  0.0000E+00
 -13.750  0.0000E+00  0.0000E+00
 -13.740  0.0000E+00  0.0000E+00
 -13.730  0.0000E+00  0.0000E+00
 -13.720  0.0000E+00  0.0000E+00
 -13.710  0.0000E+00  0.0000E+00
 -13.700  0.0000E+00  0.0000E+00
 -13.690  0.0000E+00  0.0000E+00
 -13.680  0.0000E+00  0.0000E+00
 -13.670  0.0000E+00  0.0000E+00
 -13.660  0.0000E+00  0.0000E+00
 -13.650  0.0000E+00  0.0000E+00
 -13.640  0.0000E+00  0.0000E+00
 -13.630  0.0000E+00  0.0000E+00
 -13.620  0.0000E+00  0.0000E+00
 -13.610  0.0000E+00  0.0000E+00
 -13.600  0.0000E+00  0.0000E+00
 -13.590  0.0000E+00  0.0000E+00
 -13.580  0.0000E+00  0.0000E+00
 -13.570  0.0000E+00  0.0000E+00
 -13.560  0.0000E+00  0.0000E+00
 -13.550  0.0000E+00  0.0000E+00
 -13.540  0.0000E+00  0.0000E+00
 -13.530  0.0000E+00  0.0000E+00
 -13.520  0.0000E+00  0.0000E+00
 -13.510  0.0000E+00  0.0000E+00
 -13.500  0.0000E+00  0.0000E+00
 -13.490  0.0000E+00  0.0000E+00
 -13.480  0.0000E+00  0.0000E+00
 -13.470  0.0000E+00  0.0000E+00
 -13.460  0.0000E+00  0.0000E+00
 -13.450  0.0000E+00  0.0000E+00
 -13.440  0.0000E+00  0.0000E+00
 -13.430  0.0000E+00  0.0000E+00
 -13.420  0.0000E+00  0.0000E+00
 -13.410  0.0000E+00  0.0000E+00
 -13.400  0.0000E+00  0.0000E+00
 -13.390  0.0000E+00  0.0000E+00
 -13.380  0.0000E+00  0.0000E+00
 -13.370  0.0000E+00  0.0000E+00
 -13.360  0.0000E+00  0.0000E+00
 -13.350  0.0000E+00  0.0000E+00
 -13.340  0.0000E+00  0.0000E+00
 -13.330  0.0000E+00  0.0000E+00
 -13.320  0.0000E+00  0.0000E+00
 -13.310  0.0000E+00  0.0000E+00
 -13.300  0.0000E+00  0.0000E+00
 -13.290  0.0000E+00  0.0000E+00
 -13.280  0.0000E+00  0.0000E+00
 -13.270  0.0000E+00  0.0000E+00
 -13.260  0.0000E+00  0.0000E+00
 -13.250  0.0000E+00  0.0000E+00
 -13.240  0.0000E+00  0.0000E+00
 -13.230  0.0000E+00  0.0000E+00
 -13.220  0.0000E+00  0.0000E+00
 -13.210  0.0000E+00  0.0000E+00
 -13.200  0.0000E+00  0.0000E+00
 -13.190  0.0000E+00  0.0000E+00
 -13.180  0.0000E+00  0.0000E+00
 -13.170  0.0000E+00  0.0000E+00
 -13.160  0.0000E+00  0.0000E+00
 -13.150  0.0000E+00  0.0000E+00
 -13.140  0.0000E+00  0.0000E+00
 -13.130  0.0000E+00  0.0000E+00
 -13.120  0.0000E+00  0.0000E+00
 -13.110  0.0000E+00  0.0000E+00
 -13.100  0.0000E+00  0.0000E+00
 -13.090  0.0000E+00  0.0000E+00
 -13.080  0.0000E+00  0.0000E+00
 -13.070  0.2959E+01  0.1414E-01
 -13.060  0.2906E+01  0.4421E-01
 -13.050  0.2985E+01  0.7460E-01
 -13.040  0.3045E+01  0.1055E+00
 -13.030  0.3189E+01  0.1362E+00
 -13.020  0.3114E+01  0.1677E+00
 -13.010  0.3243E+01  0.1997E+00
 -13.000  0.3217E+01  0.2316E+00
 -12.990  0.3255E+01  0.2645E+00
 -12.980  0.3293E+01  0.2972E+00
 -12.970  0.3368E+01  0.3309E+00
 -12.960  0.3396E+01  0.3645E+00
 -12.950  0.3512E+01  0.3990E+00
 -12.940  0.3467E+01  0.4337E+00
 -12.930  0.3574E+01  0.4690E+00
 -12.920  0.3594E+01  0.5049E+00
 -12.910  0.3647E+01  0.5410E+00
 -12.900  0.3746E+01  0.5781E+00
 -12.890  0.3762E+01  0.6155E+00
 -12.880  0.3841E+01  0.6534E+00
 -12.870  0.3895E+01  0.6924E+00
 -12.860  0.3962E+01  0.7316E+00
 -12.850  0.4048E+01  0.7716E+00
 -12.840  0.4104E+01  0.8125E+00
 -12.830  0.4190E+01  0.8539E+00
 -12.820  0.4289E+01  0.8963E+00
 -12.810  0.4355E+01  0.9396E+00
 -12.800  0.4452E+01  0.9835E+00
 -12.790  0.4572E+01  0.1029E+01
 -12.780  0.4651E+01  0.1075E+01
 -12.770  0.4746E+01  0.1122E+01
 -12.760  0.4896E+01  0.1170E+01
 -12.750  0.5001E+01  0.1219E+01
 -12.740  0.5128E+01  0.1270E+01
 -12.730  0.5287E+01  0.1322E+01
 -12.720  0.5424E+01  0.1375E+01
 -12.710  0.5595E+01  0.1431E+01
 -12.700  0.5785E+01  0.1487E+01
 -12.690  0.5963E+01  0.1546E+01
 -12.680  0.6184E+01  0.1607E+01
 -12.670  0.6434E+01  0.1670E+01
 -12.660  0.6689E+01  0.1735E+01
 -12.650  0.6958E+01  0.1804E+01
 -12.640  0.7308E+01  0.1875E+01
 -12.630  0.7679E+01  0.1950E+01
 -12.620  0.8127E+01  0.2029E+01
 -12.610  0.8598E+01  0.2112E+01
 -12.600  0.9194E+01  0.2201E+01
 -12.590  0.9902E+01  0.2297E+01
 -12.580  0.1078E+02  0.2400E+01
 -12.570  0.1207E+02  0.2514E+01
 -12.560  0.1369E+02  0.2642E+01
 -12.550  0.1673E+02  0.2793E+01
 -12.540  0.2708E+02  0.2992E+01
 -12.530  0.1810E+02  0.3227E+01
 -12.520  0.1516E+02  0.3394E+01
 -12.510  0.1378E+02  0.3538E+01
 -12.500  0.1271E+02  0.3668E+01
 -12.490  0.1159E+02  0.3788E+01
 -12.480  0.1062E+02  0.3901E+01
 -12.470  0.4495E+01  0.4000E+01
 -12.460  0.0000E+00  0.4000E+01
 -12.450  0.0000E+00  0.4000E+01
 -12.440  0.0000E+00  0.4000E+01
 -12.430  0.0000E+00  0.4000E+01
 -12.420  0.0000E+00  0.4000E+01
 -12.410  0.0000E+00  0.4000E+01
 -12.400  0.0000E+00  0.4000E+01
 -12.390  0.0000E+00  0.4000E+01
 -12.380  0.0000E+00  0.4000E+01
 -12.370  0.0000E+00  0.4000E+01
 -12.360  0.0000E+00  0.4000E+01
 -12.350  0.0000E+00  0.4000E+01
 -12.340  0.0000E+00  0.4000E+01
 -12.330  0.0000E+00  0.4000E+01
 -12.320  0.0000E+00  0.4000E+01
 -12.310  0.0000E+00  0.4000E+01
 -12.300  0.0000E+00  0.4000E+01
 -12.290  0.0000E+00  0.4000E+01
 -12.280  0.0000E+00  0.4000E+01
 -12.270  0.0000E+00  0.4000E+01
 -12.260  0.0000E+00  0.4000E+01
 -12.250  0.0000E+00  0.4000E+01
 -12.240  0.0000E+00  0.4000E+01
 -12.230  0.0000E+00  0.4000E+01
 -12.220  0.0000E+00  0.4000E+01
 -12.210  0.0000E+00  0.4000E+01
 -12.200  0.0000E+00  0.4000E+01
 -12.190  0.0000E+00  0.4000E+01
 -12.180  0.0000E+00  0.4000E+01
 -12.170  0.0000E+00  0.4000E+01
 -12.160  0.0000E+00  0.4000E+01
 -12.150  0.0000E+00  0.4000E+01
 -12.140  0.0000E+00  0.4000E+01
 -12.130  0.0000E+00  0.4000E+01
 -12.120  0.0000E+00  0.4000E+01
 -12.110  0.0000E+00  0.4000E+01
 -12.100  0.0000E+00  0.4000E+01
 -12.090  0.0000E+00  0.4000E+01
 -12.080  0.0000E+00  0.4000E+01
 -12.070  0.0000E+00  0.4000E+01
 -12.060  0.0000E+00  0.4000E+01
 -12.050  0.0000E+00  0.4000E+01
 -12.040  0.0000E+00  0.4000E+01
 -12.030  0.0000E+00  0.4000E+01
 -12.020  0.0000E+00  0.4000E+01
 -12.010  0.0000E+00  0.4000E+01
 -12.000  0.0000E+00  0.4000E+01
 -11.990  0.0000E+00  0.4000E+01
 -11.980  0.0000E+00  0.4000E+01
 -11.970  0.0000E+00  0.4000E+01
 -11.960  0.0000E+00  0.4000E+01
 -11.950  0.0000E+00  0.4000E+01
 -11.940  0.0000E+00  0.4000E+01
 -11.930  0.0000E+00  0.4000E+01
 -11.920  0.0000E+00  0.4000E+01
 -11.910  0.0000E+00  0.4000E+01
 -11.900  0.0000E+00  0.4000E+01
 -11.890  0.0000E+00  0.4000E+01
 -11.880  0.0000E+00  0.4000E+01
 -11.870  0.0000E+00  0.4000E+01
 -11.860  0.0000E+00  0.4000E+01
 -11.850  0.0000E+00  0.4000E+01
 -11.840  0.0000E+00  0.4000E+01
 -11.830  0.0000E+00  0.4000E+01
 -11.820  0.0000E+00  0.4000E+01
 -11.810  0.0000E+00  0.4000E+01
 -11.800  0.0000E+00  0.4000E+01
 -11.790  0.0000E+00  0.4000E+01
 -11.780  0.0000E+00  0.4000E+01
 -11.770  0.0000E+00  0.4000E+01
 -11.760  0.0000E+00  0.4000E+01
 -11.750  0.0000E+00  0.4000E+01
 -11.740  0.0000E+00  0.4000E+01
 -11.730  0.0000E+00  0.4000E+01
 -11.720  0.0000E+00  0.4000E+01
 -11.710  0.0000E+00  0.4000E+01
 -11.700  0.0000E+00  0.4000E+01
 -11.690  0.0000E+00  0.4000E+01
 -11.680  0.0000E+00  0.4000E+01
 -11.670  0.0000E+00  0.4000E+01
 -11.660  0.0000E+00  0.4000E+01
 -11.650  0.0000E+00  0.4000E+01
 -11.640  0.0000E+00  0.4000E+01
 -11.630  0.0000E+00  0.4000E+01
 -11.620  0.0000E+00  0.4000E+01
 -11.610  0.0000E+00  0.4000E+01
 -11.600  0.0000E+00  0.4000E+01
 -11.590  0.0000E+00  0.4000E+01
 -11.580  0.0000E+00  0.4000E+01
 -11.570  0.0000E+00  0.4000E+01
 -11.560  0.0000E+00  0.4000E+01
 -11.550  0.0000E+00  0.4000E+01
 -11.540  0.0000E+00  0.4000E+01
 -11.530  0.0000E+00  0.4000E+01
 -11.520  0.0000E+00  0.4000E+01
 -11.510  0.0000E+00  0.4000E+01
 -11.500  0.0000E+00  0.4000E+01
 -11.490  0.0000E+00  0.4000E+01
 -11.480  0.0000E+00  0.4000E+01
 -11.470  0.0000E+00  0.4000E+01
 -11.460  0.0000E+00  0.4000E+01
 -11.450  0.0000E+00  0.4000E+01
 -11.440  0.0000E+00  0.4000E+01
 -11.430  0.0000E+00  0.4000E+01
 -11.420  0.0000E+00  0.4000E+01
 -11.410  0.0000E+00  0.4000E+01
 -11.400  0.0000E+00  0.4000E+01
 -11.390  0.0000E+00  0.4000E+01
 -11.380  0.0000E+00  0.4000E+01
 -11.370  0.0000E+00  0.4000E+01
 -11.360  0.0000E+00  0.4000E+01
 -11.350  0.0000E+00  0.4000E+01
 -11.340  0.0000E+00  0.4000E+01
 -11.330  0.0000E+00  0.4000E+01
 -11.320  0.0000E+00  0.4000E+01
 -11.310  0.0000E+00  0.4000E+01
 -11.300  0.0000E+00  0.4000E+01
 -11.290  0.0000E+00  0.4000E+01
 -11.280  0.0000E+00  0.4000E+01
 -11.270  0.0000E+00  0.4000E+01
 -11.260  0.0000E+00  0.4000E+01
 -11.250  0.0000E+00  0.4000E+01
 -11.240  0.0000E+00  0.4000E+01
 -11.230  0.0000E+00  0.4000E+01
 -11.220  0.0000E+00  0.4000E+01
 -11.210  0.0000E+00  0.4000E+01
 -11.200  0.0000E+00  0.4000E+01
 -11.190  0.0000E+00  0.4000E+01
 -11.180  0.0000E+00  0.4000E+01
 -11.170  0.0000E+00  0.4000E+01
 -11.160  0.0000E+00  0.4000E+01
 -11.150  0.0000E+00  0.4000E+01
 -11.140  0.0000E+00  0.4000E+01
 -11.130  0.0000E+00  0.4000E+01
 -11.120  0.0000E+00  0.4000E+01
 -11.110  0.0000E+00  0.4000E+01
 -11.100  0.0000E+00  0.4000E+01
 -11.090  0.0000E+00  0.4000E+01
 -11.080  0.0000E+00  0.4000E+01
 -11.070  0.0000E+00  0.4000E+01
 -11.060  0.0000E+00  0.4000E+01
 -11.050  0.0000E+00  0.4000E+01
 -11.040  0.0000E+00  0.4000E+01
 -11.030  0.0000E+00  0.4000E+01
 -11.020  0.0000E+00  0.4000E+01
 -11.010  0.0000E+00  0.4000E+01
 -11.000  0.0000E+00  0.4000E+01
 -10.990  0.0000E+00  0.4000E+01
 -10.980  0.0000E+00  0.4000E+01
 -10.970  0.0000E+00  0.4000E+01
 -10.960  0.0000E+00  0.4000E+01
 -10.950  0.0000E+00  0.4000E+01
 -10.940  0.0000E+00  0.4000E+01
 -10.930  0.0000E+00  0.4000E+01
 -10.920  0.0000E+00  0.4000E+01
 -10.910  0.0000E+00  0.4000E+01
 -10.900  0.0000E+00  0.4000E+01
 -10.890  0.0000E+00  0.4000E+01
 -10.880  0.0000E+00  0.4000E+01
 -10.870  0.0000E+00  0.4000E+01
 -10.860  0.0000E+00  0.4000E+01
 -10.850  0.0000E+00  0.4000E+01
 -10.840  0.0000E+00  0.4000E+01
 -10.830  0.0000E+00  0.4000E+01
 -10.820  0.0000E+00  0.4000E+01
 -10.810  0.0000E+00  0.4000E+01
 -10.800  0.0000E+00  0.4000E+01
 -10.790  0.0000E+00  0.4000E+01
 -10.780  0.0000E+00  0.4000E+01
 -10.770  0.0000E+00  0.4000E+01
 -10.760  0.0000E+00  0.4000E+01
 -10.750  0.0000E+00  0.4000E+01
 -10.740  0.0000E+00  0.4000E+01
 -10.730  0.0000E+00  0.4000E+01
 -10.720  0.0000E+00  0.4000E+01
 -10.710  0.0000E+00  0.4000E+01
 -10.700  0.0000E+00  0.4000E+01
 -10.690  0.0000E+00  0.4000E+01
 -10.680  0.0000E+00  0.4000E+01
 -10.670  0.0000E+00  0.4000E+01
 -10.660  0.0000E+00  0.4000E+01
 -10.650  0.0000E+00  0.4000E+01
 -10.640  0.0000E+00  0.4000E+01
 -10.630  0.0000E+00  0.4000E+01
 -10.620  0.0000E+00  0.4000E+01
 -10.610  0.0000E+00  0.4000E+01
 -10.600  0.0000E+00  0.4000E+01
 -10.590  0.0000E+00  0.4000E+01
 -10.580  0.0000E+00  0.4000E+01
 -10.570  0.0000E+00  0.4000E+01
 -10.560  0.0000E+00  0.4000E+01
 -10.550  0.0000E+00  0.4000E+01
 -10.540  0.0000E+00  0.4000E+01
 -10.530  0.0000E+00  0.4000E+01
 -10.520  0.0000E+00  0.4000E+01
 -10.510  0.0000E+00  0.4000E+01
 -10.500  0.0000E+00  0.4000E+01
 -10.490  0.0000E+00  0.4000E+01
 -10.480  0.0000E+00  0.4000E+01
 -10.470  0.0000E+00  0.4000E+01
 -10.460  0.0000E+00  0.4000E+01
 -10.450  0.0000E+00  0.4000E+01
 -10.440  0.0000E+00  0.4000E+01
 -10.430  0.0000E+00  0.4000E+01
 -10.420  0.0000E+00  0.4000E+01
 -10.410  0.0000E+00  0.4000E+01
 -10.400  0.0000E+00  0.4000E+01
 -10.390  0.0000E+00  0.4000E+01
 -10.380  0.0000E+00  0.4000E+01
 -10.370  0.0000E+00  0.4000E+01
 -10.360  0.0000E+00  0.4000E+01
 -10.350  0.0000E+00  0.4000E+01
 -10.340  0.0000E+00  0.4000E+01
 -10.330  0.0000E+00  0.4000E+01
 -10.320  0.0000E+00  0.4000E+01
 -10.310  0.0000E+00  0.4000E+01
 -10.300  0.0000E+00  0.4000E+01
 -10.290  0.0000E+00  0.4000E+01
 -10.280  0.0000E+00  0.4000E+01
 -10.270  0.0000E+00  0.4000E+01
 -10.260  0.0000E+00  0.4000E+01
 -10.250  0.0000E+00  0.4000E+01
 -10.240  0.0000E+00  0.4000E+01
 -10.230  0.0000E+00  0.4000E+01
 -10.220  0.0000E+00  0.4000E+01
 -10.210  0.0000E+00  0.4000E+01
 -10.200  0.0000E+00  0.4000E+01
 -10.190  0.0000E+00  0.4000E+01
 -10.180  0.0000E+00  0.4000E+01
 -10.170  0.0000E+00  0.4000E+01
 -10.160  0.0000E+00  0.4000E+01
 -10.150  0.0000E+00  0.4000E+01
 -10.140  0.0000E+00  0.4000E+01
 -10.130  0.0000E+00  0.4000E+01
 -10.120  0.0000E+00  0.4000E+01
 -10.110  0.0000E+00  0.4000E+01
 -10.100  0.0000E+00  0.4000E+01
 -10.090  0.0000E+00  0.4000E+01
 -10.080  0.0000E+00  0.4000E+01
 -10.070  0.0000E+00  0.4000E+01
 -10.060  0.0000E+00  0.4000E+01
 -10.050  0.0000E+00  0.4000E+01
 -10.040  0.0000E+00  0.4000E+01
 -10.030  0.0000E+00  0.4000E+01
 -10.020  0.0000E+00  0.4000E+01
 -10.010  0.0000E+00  0.4000E+01
 -10.000  0.0000E+00  0.4000E+01
  -9.990  0.0000E+00  0.4000E+01
  -9.980  0.0000E+00  0.4000E+01
  -9.970  0.0000E+00  0.4000E+01
  -9.960  0.0000E+00  0.4000E+01
  -9.950  0.0000E+00  0.4000E+01
  -9.940  0.0000E+00  0.4000E+01
  -9.930  0.0000E+00  0.4000E+01
  -9.920  0.0000E+00  0.4000E+01
  -9.910  0.0000E+00  0.4000E+01
  -9.900  0.0000E+00  0.4000E+01
  -9.890  0.0000E+00  0.4000E+01
  -9.880  0.0000E+00  0.4000E+01
  -9.870  0.0000E+00  0.4000E+01
  -9.860  0.0000E+00  0.4000E+01
  -9.850  0.0000E+00  0.4000E+01
  -9.840  0.0000E+00  0.4000E+01
  -9.830  0.0000E+00  0.4000E+01
  -9.820  0.0000E+00  0.4000E+01
  -9.810  0.0000E+00  0.4000E+01
  -9.800  0.0000E+00  0.4000E+01
  -9.790  0.0000E+00  0.4000E+01
  -9.780  0.0000E+00  0.4000E+01
  -9.770  0.0000E+00  0.4000E+01
  -9.760  0.0000E+00  0.4000E+01
  -9.750  0.0000E+00  0.4000E+01
  -9.740  0.0000E+00  0.4000E+01
  -9.730  0.0000E+00  0.4000E+01
  -9.720  0.0000E+00  0.4000E+01
  -9.710  0.0000E+00  0.4000E+01
  -9.700  0.0000E+00  0.4000E+01
  -9.690  0.0000E+00  0.4000E+01
  -9.680  0.0000E+00  0.4000E+01
  -9.670  0.0000E+00  0.4000E+01
  -9.660  0.0000E+00  0.4000E+01
  -9.650  0.0000E+00  0.4000E+01
  -9.640  0.0000E+00  0.4000E+01
  -9.630  0.0000E+00  0.4000E+01
  -9.620  0.0000E+00  0.4000E+01
  -9.610  0.0000E+00  0.4000E+01
  -9.600  0.0000E+00  0.4000E+01
  -9.590  0.0000E+00  0.4000E+01
  -9.580  0.0000E+00  0.4000E+01
  -9.570  0.0000E+00  0.4000E+01
  -9.560  0.0000E+00  0.4000E+01
  -9.550  0.0000E+00  0.4000E+01
  -9.540  0.0000E+00  0.4000E+01
  -9.530  0.0000E+00  0.4000E+01
  -9.520  0.0000E+00  0.4000E+01
  -9.510  0.0000E+00  0.4000E+01
  -9.500  0.0000E+00  0.4000E+01
  -9.490  0.0000E+00  0.4000E+01
  -9.480  0.0000E+00  0.4000E+01
  -9.470  0.0000E+00  0.4000E+01
  -9.460  0.0000E+00  0.4000E+01
  -9.450  0.0000E+00  0.4000E+01
  -9.440  0.0000E+00  0.4000E+01
  -9.430  0.0000E+00  0.4000E+01
  -9.420  0.0000E+00  0.4000E+01
  -9.410  0.0000E+00  0.4000E+01
  -9.400  0.0000E+00  0.4000E+01
  -9.390  0.0000E+00  0.4000E+01
  -9.380  0.0000E+00  0.4000E+01
  -9.370  0.0000E+00  0.4000E+01
  -9.360  0.0000E+00  0.4000E+01
  -9.350  0.0000E+00  0.4000E+01
  -9.340  0.0000E+00  0.4000E+01
  -9.330  0.0000E+00  0.4000E+01
  -9.320  0.0000E+00  0.4000E+01
  -9.310  0.0000E+00  0.4000E+01
  -9.300  0.0000E+00  0.4000E+01
  -9.290  0.0000E+00  0.4000E+01
  -9.280  0.0000E+00  0.4000E+01
  -9.270  0.0000E+00  0.4000E+01
  -9.260  0.0000E+00  0.4000E+01
  -9.250  0.0000E+00  0.4000E+01
  -9.240  0.0000E+00  0.4000E+01
  -9.230  0.0000E+00  0.4000E+01
  -9.220  0.0000E+00  0.4000E+01
  -9.210  0.0000E+00  0.4000E+01
  -9.200  0.0000E+00  0.4000E+01
  -9.190  0.0000E+00  0.4000E+01
  -9.180  0.0000E+00  0.4000E+01
  -9.170  0.0000E+00  0.4000E+01
  -9.160  0.0000E+00  0.4000E+01
  -9.150  0.0000E+00  0.4000E+01
  -9.140  0.0000E+00  0.4000E+01
  -9.130  0.0000E+00  0.4000E+01
  -9.120  0.0000E+00  0.4000E+01
  -9.110  0.0000E+00  0.4000E+01
  -9.100  0.0000E+00  0.4000E+01
  -9.090  0.0000E+00  0.4000E+01
  -9.080  0.0000E+00  0.4000E+01
  -9.070  0.0000E+00  0.4000E+01
  -9.060  0.0000E+00  0.4000E+01
  -9.050  0.0000E+00  0.4000E+01
  -9.040  0.0000E+00  0.4000E+01
  -9.030  0.0000E+00  0.4000E+01
  -9.020  0.0000E+00  0.4000E+01
  -9.010  0.0000E+00  0.4000E+01
  -9.000  0.0000E+00  0.4000E+01
  -8.990  0.0000E+00  0.4000E+01
  -8.980  0.0000E+00  0.4000E+01
  -8.970  0.0000E+00  0.4000E+01
  -8.960  0.0000E+00  0.4000E+01
  -8.950  0.0000E+00  0.4000E+01
  -8.940  0.0000E+00  0.4000E+01
  -8.930  0.0000E+00  0.4000E+01
  -8.920  0.0000E+00  0.4000E+01
  -8.910  0.0000E+00  0.4000E+01
  -8.900  0.0000E+00  0.4000E+01
  -8.890  0.0000E+00  0.4000E+01
  -8.880  0.0000E+00  0.4000E+01
  -8.870  0.0000E+00  0.4000E+01
  -8.860  0.0000E+00  0.4000E+01
  -8.850  0.0000E+00  0.4000E+01
  -8.840  0.0000E+00  0.4000E+01
  -8.830  0.0000E+00  0.4000E+01
  -8.820  0.0000E+00  0.4000E+01
  -8.810  0.0000E+00  0.4000E+01
  -8.800  0.0000E+00  0.4000E+01
  -8.790  0.0000E+00  0.4000E+01
  -8.780  0.0000E+00  0.4000E+01
  -8.770  0.0000E+00  0.4000E+01
  -8.760  0.0000E+00  0.4000E+01
  -8.750  0.0000E+00  0.4000E+01
  -8.740  0.0000E+00  0.4000E+01
  -8.730  0.0000E+00  0.4000E+01
  -8.720  0.0000E+00  0.4000E+01
  -8.710  0.0000E+00  0.4000E+01
  -8.700  0.0000E+00  0.4000E+01
  -8.690  0.0000E+00  0.4000E+01
  -8.680  0.0000E+00  0.4000E+01
  -8.670  0.0000E+00  0.4000E+01
  -8.660  0.0000E+00  0.4000E+01
  -8.650  0.0000E+00  0.4000E+01
  -8.640  0.0000E+00  0.4000E+01
  -8.630  0.0000E+00  0.4000E+01
  -8.620  0.0000E+00  0.4000E+01
  -8.610  0.0000E+00  0.4000E+01
  -8.600  0.0000E+00  0.4000E+01
  -8.590  0.0000E+00  0.4000E+01
  -8.580  0.0000E+00  0.4000E+01
  -8.570  0.0000E+00  0.4000E+01
  -8.560  0.0000E+00  0.4000E+01
  -8.550  0.0000E+00  0.4000E+01
  -8.540  0.0000E+00  0.4000E+01
  -8.530  0.0000E+00  0.4000E+01
  -8.520  0.0000E+00  0.4000E+01
  -8.510  0.0000E+00  0.4000E+01
  -8.500  0.0000E+00  0.4000E+01
  -8.490  0.0000E+00  0.4000E+01
  -8.480  0.0000E+00  0.4000E+01
  -8.470  0.0000E+00  0.4000E+01
  -8.460  0.0000E+00  0.4000E+01
  -8.450  0.0000E+00  0.4000E+01
  -8.440  0.0000E+00  0.4000E+01
  -8.430  0.0000E+00  0.4000E+01
  -8.420  0.0000E+00  0.4000E+01
  -8.410  0.0000E+00  0.4000E+01
  -8.400  0.0000E+00  0.4000E+01
  -8.390  0.0000E+00  0.4000E+01
  -8.380  0.0000E+00  0.4000E+01
  -8.370  0.0000E+00  0.4000E+01
  -8.360  0.0000E+00  0.4000E+01
  -8.350  0.0000E+00  0.4000E+01
  -8.340  0.0000E+00  0.4000E+01
  -8.330  0.0000E+00  0.4000E+01
  -8.320  0.0000E+00  0.4000E+01
  -8.310  0.0000E+00  0.4000E+01
  -8.300  0.0000E+00  0.4000E+01
  -8.290  0.0000E+00  0.4000E+01
  -8.280  0.0000E+00  0.4000E+01
  -8.270  0.0000E+00  0.4000E+01
  -8.260  0.0000E+00  0.4000E+01
  -8.250  0.0000E+00  0.4000E+01
  -8.240  0.0000E+00  0.4000E+01
  -8.230  0.0000E+00  0.4000E+01
  -8.220  0.0000E+00  0.4000E+01
  -8.210  0.0000E+00  0.4000E+01
  -8.200  0.0000E+00  0.4000E+01
  -8.190  0.0000E+00  0.4000E+01
  -8.180  0.0000E+00  0.4000E+01
  -8.170  0.0000E+00  0.4000E+01
  -8.160  0.0000E+00  0.4000E+01
  -8.150  0.0000E+00  0.4000E+01
  -8.140  0.0000E+00  0.4000E+01
  -8.130  0.0000E+00  0.4000E+01
  -8.120  0.0000E+00  0.4000E+01
  -8.110  0.0000E+00  0.4000E+01
  -8.100  0.0000E+00  0.4000E+01
  -8.090  0.0000E+00  0.4000E+01
  -8.080  0.0000E+00  0.4000E+01
  -8.070  0.0000E+00  0.4000E+01
  -8.060  0.0000E+00  0.4000E+01
  -8.050  0.0000E+00  0.4000E+01
  -8.040  0.0000E+00  0.4000E+01
  -8.030  0.0000E+00  0.4000E+01
  -8.020  0.0000E+00  0.4000E+01
  -8.010  0.0000E+00  0.4000E+01
  -8.000  0.0000E+00  0.4000E+01
  -7.990  0.0000E+00  0.4000E+01
  -7.980  0.0000E+00  0.4000E+01
  -7.970  0.0000E+00  0.4000E+01
  -7.960  0.0000E+00  0.4000E+01
  -7.950  0.0000E+00  0.4000E+01
  -7.940  0.0000E+00  0.4000E+01
  -7.930  0.5193E-05  0.4000E+01
  -7.920  0.5445E+00  0.4002E+01
  -7.910  0.6193E+00  0.4008E+01
  -7.900  0.1178E+01  0.4017E+01
  -7.890  0.1178E+01  0.4029E+01
  -7.880  0.1209E+01  0.4041E+01
  -7.870  0.1195E+01  0.4053E+01
  -7.860  0.1188E+01  0.4065E+01
  -7.850  0.1198E+01  0.4077E+01
  -7.840  0.1209E+01  0.4089E+01
  -7.830  0.1194E+01  0.4101E+01
  -7.820  0.1205E+01  0.4113E+01
  -7.810  0.1204E+01  0.4125E+01
  -7.800  0.1211E+01  0.4137E+01
  -7.790  0.1217E+01  0.4149E+01
  -7.780  0.1205E+01  0.4161E+01
  -7.770  0.1208E+01  0.4173E+01
  -7.760  0.1232E+01  0.4186E+01
  -7.750  0.1225E+01  0.4198E+01
  -7.740  0.1218E+01  0.4210E+01
  -7.730  0.1217E+01  0.4222E+01
  -7.720  0.1225E+01  0.4234E+01
  -7.710  0.1244E+01  0.4247E+01
  -7.700  0.1241E+01  0.4259E+01
  -7.690  0.1228E+01  0.4272E+01
  -7.680  0.1227E+01  0.4284E+01
  -7.670  0.1239E+01  0.4296E+01
  -7.660  0.1252E+01  0.4309E+01
  -7.650  0.1255E+01  0.4321E+01
  -7.640  0.1253E+01  0.4334E+01
  -7.630  0.1241E+01  0.4346E+01
  -7.620  0.1246E+01  0.4359E+01
  -7.610  0.1255E+01  0.4371E+01
  -7.600  0.1270E+01  0.4384E+01
  -7.590  0.1269E+01  0.4396E+01
  -7.580  0.1275E+01  0.4409E+01
  -7.570  0.1260E+01  0.4422E+01
  -7.560  0.1262E+01  0.4434E+01
  -7.550  0.1270E+01  0.4447E+01
  -7.540  0.1282E+01  0.4460E+01
  -7.530  0.1292E+01  0.4473E+01
  -7.520  0.1291E+01  0.4486E+01
  -7.510  0.1289E+01  0.4499E+01
  -7.500  0.1283E+01  0.4511E+01
  -7.490  0.1285E+01  0.4524E+01
  -7.480  0.1292E+01  0.4537E+01
  -7.470  0.1303E+01  0.4550E+01
  -7.460  0.1316E+01  0.4563E+01
  -7.450  0.1313E+01  0.4576E+01
  -7.440  0.1313E+01  0.4590E+01
  -7.430  0.1308E+01  0.4603E+01
  -7.420  0.1312E+01  0.4616E+01
  -7.410  0.1316E+01  0.4629E+01
  -7.400  0.1323E+01  0.4642E+01
  -7.390  0.1333E+01  0.4655E+01
  -7.380  0.1346E+01  0.4669E+01
  -7.370  0.1344E+01  0.4682E+01
  -7.360  0.1336E+01  0.4696E+01
  -7.350  0.1337E+01  0.4709E+01
  -7.340  0.1343E+01  0.4722E+01
  -7.330  0.1350E+01  0.4736E+01
  -7.320  0.1357E+01  0.4749E+01
  -7.310  0.1363E+01  0.4763E+01
  -7.300  0.1375E+01  0.4777E+01
  -7.290  0.1378E+01  0.4790E+01
  -7.280  0.1373E+01  0.4804E+01
  -7.270  0.1372E+01  0.4818E+01
  -7.260  0.1375E+01  0.4832E+01
  -7.250  0.1381E+01  0.4845E+01
  -7.240  0.1392E+01  0.4859E+01
  -7.230  0.1400E+01  0.4873E+01
  -7.220  0.1408E+01  0.4887E+01
  -7.210  0.1412E+01  0.4901E+01
  -7.200  0.1414E+01  0.4916E+01
  -7.190  0.1414E+01  0.4930E+01
  -7.180  0.1417E+01  0.4944E+01
  -7.170  0.1421E+01  0.4958E+01
  -7.160  0.1427E+01  0.4972E+01
  -7.150  0.1436E+01  0.4987E+01
  -7.140  0.1447E+01  0.5001E+01
  -7.130  0.1457E+01  0.5015E+01
  -7.120  0.1459E+01  0.5030E+01
  -7.110  0.1456E+01  0.5045E+01
  -7.100  0.1461E+01  0.5059E+01
  -7.090  0.1468E+01  0.5074E+01
  -7.080  0.1474E+01  0.5089E+01
  -7.070  0.1480E+01  0.5103E+01
  -7.060  0.1486E+01  0.5118E+01
  -7.050  0.1497E+01  0.5133E+01
  -7.040  0.1510E+01  0.5148E+01
  -7.030  0.1516E+01  0.5163E+01
  -7.020  0.1516E+01  0.5178E+01
  -7.010  0.1516E+01  0.5194E+01
  -7.000  0.1523E+01  0.5209E+01
  -6.990  0.1534E+01  0.5224E+01
  -6.980  0.1542E+01  0.5239E+01
  -6.970  0.1550E+01  0.5255E+01
  -6.960  0.1558E+01  0.5270E+01
  -6.950  0.1569E+01  0.5286E+01
  -6.940  0.1582E+01  0.5302E+01
  -6.930  0.1585E+01  0.5318E+01
  -6.920  0.1588E+01  0.5334E+01
  -6.910  0.1593E+01  0.5349E+01
  -6.900  0.1600E+01  0.5365E+01
  -6.890  0.1613E+01  0.5382E+01
  -6.880  0.1625E+01  0.5398E+01
  -6.870  0.1635E+01  0.5414E+01
  -6.860  0.1644E+01  0.5430E+01
  -6.850  0.1654E+01  0.5447E+01
  -6.840  0.1664E+01  0.5463E+01
  -6.830  0.1672E+01  0.5480E+01
  -6.820  0.1680E+01  0.5497E+01
  -6.810  0.1688E+01  0.5514E+01
  -6.800  0.1696E+01  0.5531E+01
  -6.790  0.1709E+01  0.5548E+01
  -6.780  0.1726E+01  0.5565E+01
  -6.770  0.1739E+01  0.5582E+01
  -6.760  0.1751E+01  0.5600E+01
  -6.750  0.1761E+01  0.5617E+01
  -6.740  0.1769E+01  0.5635E+01
  -6.730  0.1784E+01  0.5653E+01
  -6.720  0.1797E+01  0.5671E+01
  -6.710  0.1809E+01  0.5689E+01
  -6.700  0.1820E+01  0.5707E+01
  -6.690  0.1834E+01  0.5725E+01
  -6.680  0.1854E+01  0.5743E+01
  -6.670  0.1871E+01  0.5762E+01
  -6.660  0.1887E+01  0.5781E+01
  -6.650  0.1898E+01  0.5800E+01
  -6.640  0.1912E+01  0.5819E+01
  -6.630  0.1932E+01  0.5838E+01
  -6.620  0.1950E+01  0.5857E+01
  -6.610  0.1966E+01  0.5877E+01
  -6.600  0.1982E+01  0.5897E+01
  -6.590  0.2000E+01  0.5917E+01
  -6.580  0.2027E+01  0.5937E+01
  -6.570  0.2048E+01  0.5957E+01
  -6.560  0.2067E+01  0.5978E+01
  -6.550  0.2084E+01  0.5998E+01
  -6.540  0.2107E+01  0.6019E+01
  -6.530  0.2136E+01  0.6041E+01
  -6.520  0.2161E+01  0.6062E+01
  -6.510  0.2183E+01  0.6084E+01
  -6.500  0.2204E+01  0.6106E+01
  -6.490  0.2239E+01  0.6128E+01
  -6.480  0.2270E+01  0.6151E+01
  -6.470  0.2299E+01  0.6173E+01
  -6.460  0.2328E+01  0.6197E+01
  -6.450  0.2361E+01  0.6220E+01
  -6.440  0.2403E+01  0.6244E+01
  -6.430  0.2439E+01  0.6268E+01
  -6.420  0.2471E+01  0.6293E+01
  -6.410  0.2507E+01  0.6317E+01
  -6.400  0.2561E+01  0.6343E+01
  -6.390  0.2602E+01  0.6369E+01
  -6.380  0.2651E+01  0.6395E+01
  -6.370  0.2704E+01  0.6422E+01
  -6.360  0.2770E+01  0.6449E+01
  -6.350  0.2826E+01  0.6477E+01
  -6.340  0.2876E+01  0.6505E+01
  -6.330  0.2956E+01  0.6535E+01
  -6.320  0.3028E+01  0.6565E+01
  -6.310  0.3093E+01  0.6595E+01
  -6.300  0.3202E+01  0.6627E+01
  -6.290  0.3318E+01  0.6659E+01
  -6.280  0.3416E+01  0.6693E+01
  -6.270  0.3556E+01  0.6728E+01
  -6.260  0.3698E+01  0.6764E+01
  -6.250  0.3853E+01  0.6802E+01
  -6.240  0.4063E+01  0.6841E+01
  -6.230  0.4297E+01  0.6883E+01
  -6.220  0.4701E+01  0.6928E+01
  -6.210  0.5192E+01  0.6977E+01
  -6.200  0.6276E+01  0.7034E+01
  -6.190  0.8932E+01  0.7108E+01
  -6.180  0.5601E+01  0.7168E+01
  -6.170  0.4766E+01  0.7219E+01
  -6.160  0.4639E+01  0.7266E+01
  -6.150  0.4272E+01  0.7310E+01
  -6.140  0.3937E+01  0.7351E+01
  -6.130  0.3835E+01  0.7390E+01
  -6.120  0.3643E+01  0.7428E+01
  -6.110  0.3561E+01  0.7463E+01
  -6.100  0.3448E+01  0.7499E+01
  -6.090  0.3412E+01  0.7533E+01
  -6.080  0.3166E+01  0.7565E+01
  -6.070  0.3100E+01  0.7597E+01
  -6.060  0.3068E+01  0.7628E+01
  -6.050  0.2971E+01  0.7658E+01
  -6.040  0.3006E+01  0.7688E+01
  -6.030  0.2785E+01  0.7717E+01
  -6.020  0.2737E+01  0.7745E+01
  -6.010  0.2752E+01  0.7772E+01
  -6.000  0.2664E+01  0.7799E+01
  -5.990  0.2676E+01  0.7826E+01
  -5.980  0.2509E+01  0.7852E+01
  -5.970  0.2597E+01  0.7877E+01
  -5.960  0.2393E+01  0.7903E+01
  -5.950  0.2434E+01  0.7927E+01
  -5.940  0.2350E+01  0.7952E+01
  -5.930  0.2508E+01  0.7975E+01
  -5.920  0.1066E+01  0.7997E+01
  -5.910  0.0000E+00  0.8000E+01
  -5.900  0.0000E+00  0.8000E+01
  -5.890  0.0000E+00  0.8000E+01
  -5.880  0.0000E+00  0.8000E+01
  -5.870  0.0000E+00  0.8000E+01
  -5.860  0.0000E+00  0.8000E+01
  -5.850  0.0000E+00  0.8000E+01
  -5.840  0.0000E+00  0.8000E+01
  -5.830  0.0000E+00  0.8000E+01
  -5.820  0.0000E+00  0.8000E+01
  -5.810  0.0000E+00  0.8000E+01
  -5.800  0.0000E+00  0.8000E+01
  -5.790  0.0000E+00  0.8000E+01
  -5.780  0.0000E+00  0.8000E+01
  -5.770  0.0000E+00  0.8000E+01
  -5.760  0.0000E+00  0.8000E+01
  -5.750  0.0000E+00  0.8000E+01
  -5.740  0.0000E+00  0.8000E+01
  -5.730  0.0000E+00  0.8000E+01
  -5.720  0.0000E+00  0.8000E+01
  -5.710  0.0000E+00  0.8000E+01
  -5.700  0.0000E+00  0.8000E+01
  -5.690  0.0000E+00  0.8000E+01
  -5.680  0.0000E+00  0.8000E+01
  -5.670  0.0000E+00  0.8000E+01
  -5.660  0.0000E+00  0.8000E+01
  -5.650  0.0000E+00  0.8000E+01
  -5.640  0.0000E+00  0.8000E+01
  -5.630  0.0000E+00  0.8000E+01
  -5.620  0.0000E+00  0.8000E+01
  -5.610  0.0000E+00  0.8000E+01
  -5.600  0.0000E+00  0.8000E+01
  -5.590  0.0000E+00  0.8000E+01
  -5.580  0.0000E+00  0.8000E+01
  -5.570  0.0000E+00  0.8000E+01
  -5.560  0.0000E+00  0.8000E+01
  -5.550  0.0000E+00  0.8000E+01
  -5.540  0.0000E+00  0.8000E+01
  -5.530  0.0000E+00  0.8000E+01
  -5.520  0.0000E+00  0.8000E+01
  -5.510  0.0000E+00  0.8000E+01
  -5.500  0.0000E+00  0.8000E+01
  -5.490  0.0000E+00  0.8000E+01
  -5.480  0.0000E+00  0.8000E+01
  -5.470  0.0000E+00  0.8000E+01
  -5.460  0.0000E+00  0.8000E+01
  -5.450  0.0000E+00  0.8000E+01
  -5.440  0.0000E+00  0.8000E+01
  -5.430  0.0000E+00  0.8000E+01
  -5.420  0.0000E+00  0.8000E+01
  -5.410  0.0000E+00  0.8000E+01
  -5.400  0.0000E+00  0.8000E+01
  -5.390  0.0000E+00  0.8000E+01
  -5.380  0.0000E+00  0.8000E+01
  -5.370  0.0000E+00  0.8000E+01
  -5.360  0.0000E+00  0.8000E+01
  -5.350  0.0000E+00  0.8000E+01
  -5.340  0.0000E+00  0.8000E+01
  -5.330  0.0000E+00  0.8000E+01
  -5.320  0.0000E+00  0.8000E+01
  -5.310  0.0000E+00  0.8000E+01
  -5.300  0.0000E+00  0.8000E+01
  -5.290  0.0000E+00  0.8000E+01
  -5.280  0.0000E+00  0.8000E+01
  -5.270  0.0000E+00  0.8000E+01
  -5.260  0.0000E+00  0.8000E+01
  -5.250  0.0000E+00  0.8000E+01
  -5.240  0.0000E+00  0.8000E+01
  -5.230  0.0000E+00  0.8000E+01
  -5.220  0.0000E+00  0.8000E+01
  -5.210  0.0000E+00  0.8000E+01
  -5.200  0.0000E+00  0.8000E+01
  -5.190  0.0000E+00  0.8000E+01
  -5.180  0.0000E+00  0.8000E+01
  -5.170  0.0000E+00  0.8000E+01
  -5.160  0.0000E+00  0.8000E+01
  -5.150  0.0000E+00  0.8000E+01
  -5.140  0.0000E+00  0.8000E+01
  -5.130  0.0000E+00  0.8000E+01
  -5.120  0.0000E+00  0.8000E+01
  -5.110  0.0000E+00  0.8000E+01
  -5.100  0.0000E+00  0.8000E+01
  -5.090  0.0000E+00  0.8000E+01
  -5.080  0.0000E+00  0.8000E+01
  -5.070  0.0000E+00  0.8000E+01
  -5.060  0.0000E+00  0.8000E+01
  -5.050  0.0000E+00  0.8000E+01
  -5.040  0.0000E+00  0.8000E+01
  -5.030  0.0000E+00  0.8000E+01
  -5.020  0.0000E+00  0.8000E+01
  -5.010  0.0000E+00  0.8000E+01
  -5.000  0.0000E+00  0.8000E+01
  -4.990  0.0000E+00  0.8000E+01
  -4.980  0.0000E+00  0.8000E+01
  -4.970  0.0000E+00  0.8000E+01
  -4.960  0.0000E+00  0.8000E+01
  -4.950  0.0000E+00  0.8000E+01
  -4.940  0.0000E+00  0.8000E+01
  -4.930  0.0000E+00  0.8000E+01
  -4.920  0.0000E+00  0.8000E+01
  -4.910  0.0000E+00  0.8000E+01
  -4.900  0.0000E+00  0.8000E+01
  -4.890  0.0000E+00  0.8000E+01
  -4.880  0.0000E+00  0.8000E+01
  -4.870  0.0000E+00  0.8000E+01
  -4.860  0.0000E+00  0.8000E+01
  -4.850  0.0000E+00  0.8000E+01
  -4.840  0.0000E+00  0.8000E+01
  -4.830  0.0000E+00  0.8000E+01
  -4.820  0.0000E+00  0.8000E+01
  -4.810  0.0000E+00  0.8000E+01
  -4.800  0.0000E+00  0.8000E+01
  -4.790  0.0000E+00  0.8000E+01
  -4.780  0.0000E+00  0.8000E+01
  -4.770  0.0000E+00  0.8000E+01
  -4.760  0.0000E+00  0.8000E+01
  -4.750  0.0000E+00  0.8000E+01
  -4.740  0.0000E+00  0.8000E+01
  -4.730  0.0000E+00  0.8000E+01
  -4.720  0.0000E+00  0.8000E+01
  -4.710  0.0000E+00  0.8000E+01
  -4.700  0.0000E+00  0.8000E+01
  -4.690  0.0000E+00  0.8000E+01
  -4.680  0.0000E+00  0.8000E+01
  -4.670  0.0000E+00  0.8000E+01
  -4.660  0.0000E+00  0.8000E+01
  -4.650  0.0000E+00  0.8000E+01
  -4.640  0.0000E+00  0.8000E+01
  -4.630  0.0000E+00  0.8000E+01
  -4.620  0.0000E+00  0.8000E+01
  -4.610  0.0000E+00  0.8000E+01
  -4.600  0.0000E+00  0.8000E+01
  -4.590  0.0000E+00  0.8000E+01
  -4.580  0.0000E+00  0.8000E+01
  -4.570  0.0000E+00  0.8000E+01
  -4.560  0.0000E+00  0.8000E+01
  -4.550  0.0000E+00  0.8000E+01
  -4.540  0.0000E+00  0.8000E+01
  -4.530  0.0000E+00  0.8000E+01
  -4.520  0.0000E+00  0.8000E+01
  -4.510  0.0000E+00  0.8000E+01
  -4.500  0.0000E+00  0.8000E+01
  -4.490  0.0000E+00  0.8000E+01
  -4.480  0.0000E+00  0.8000E+01
  -4.470  0.0000E+00  0.8000E+01
  -4.460  0.0000E+00  0.8000E+01
  -4.450  0.0000E+00  0.8000E+01
  -4.440  0.0000E+00  0.8000E+01
  -4.430  0.0000E+00  0.8000E+01
  -4.420  0.0000E+00  0.8000E+01
  -4.410  0.0000E+00  0.8000E+01
  -4.400  0.0000E+00  0.8000E+01
  -4.390  0.0000E+00  0.8000E+01
  -4.380  0.0000E+00  0.8000E+01
  -4.370  0.0000E+00  0.8000E+01
  -4.360  0.0000E+00  0.8000E+01
  -4.350  0.0000E+00  0.8000E+01
  -4.340  0.0000E+00  0.8000E+01
  -4.330  0.0000E+00  0.8000E+01
  -4.320  0.0000E+00  0.8000E+01
  -4.310  0.0000E+00  0.8000E+01
  -4.300  0.0000E+00  0.8000E+01
  -4.290  0.0000E+00  0.8000E+01
  -4.280  0.0000E+00  0.8000E+01
  -4.270  0.0000E+00  0.8000E+01
  -4.260  0.0000E+00  0.8000E+01
  -4.250  0.0000E+00  0.8000E+01
  -4.240  0.0000E+00  0.8000E+01
  -4.230  0.0000E+00  0.8000E+01
  -4.220  0.0000E+00  0.8000E+01
  -4.210  0.0000E+00  0.8000E+01
  -4.200  0.0000E+00  0.8000E+01
  -4.190  0.0000E+00  0.8000E+01
  -4.180  0.0000E+00  0.8000E+01
  -4.170  0.0000E+00  0.8000E+01
  -4.160  0.0000E+00  0.8000E+01
  -4.150  0.0000E+00  0.8000E+01
  -4.140  0.0000E+00  0.8000E+01
  -4.130  0.0000E+00  0.8000E+01
  -4.120  0.0000E+00  0.8000E+01
  -4.110  0.0000E+00  0.8000E+01
  -4.100  0.0000E+00  0.8000E+01
  -4.090  0.0000E+00  0.8000E+01
  -4.080  0.0000E+00  0.8000E+01
  -4.070  0.0000E+00  0.8000E+01
  -4.060  0.0000E+00  0.8000E+01
  -4.050  0.0000E+00  0.8000E+01
  -4.040  0.0000E+00  0.8000E+01
  -4.030  0.0000E+00  0.8000E+01
  -4.020  0.0000E+00  0.8000E+01
  -4.010  0.0000E+00  0.8000E+01
  -4.000  0.0000E+00  0.8000E+01
  -3.990  0.0000E+00  0.8000E+01
  -3.980  0.0000E+00  0.8000E+01
  -3.970  0.0000E+00  0.8000E+01
  -3.960  0.0000E+00  0.8000E+01
  -3.950  0.0000E+00  0.8000E+01
  -3.940  0.0000E+00  0.8000E+01
  -3.930  0.0000E+00  0.8000E+01
  -3.920  0.0000E+00  0.8000E+01
  -3.910  0.0000E+00  0.8000E+01
  -3.900  0.0000E+00  0.8000E+01
  -3.890  0.0000E+00  0.8000E+01
  -3.880  0.0000E+00  0.8000E+01
  -3.870  0.0000E+00  0.8000E+01
  -3.860  0.0000E+00  0.8000E+01
  -3.850  0.0000E+00  0.8000E+01
  -3.840  0.0000E+00  0.8000E+01
  -3.830  0.0000E+00  0.8000E+01
  -3.820  0.0000E+00  0.8000E+01
  -3.810  0.0000E+00  0.8000E+01
  -3.800  0.0000E+00  0.8000E+01
  -3.790  0.0000E+00  0.8000E+01
  -3.780  0.0000E+00  0.8000E+01
  -3.770  0.0000E+00  0.8000E+01
  -3.760  0.0000E+00  0.8000E+01
  -3.750  0.0000E+00  0.8000E+01
  -3.740  0.0000E+00  0.8000E+01
  -3.730  0.0000E+00  0.8000E+01
  -3.720  0.0000E+00  0.8000E+01
  -3.710  0.0000E+00  0.8000E+01
  -3.700  0.0000E+00  0.8000E+01
  -3.690  0.0000E+00  0.8000E+01
  -3.680  0.0000E+00  0.8000E+01
  -3.670  0.0000E+00  0.8000E+01
  -3.660  0.0000E+00  0.8000E+01
  -3.650  0.0000E+00  0.8000E+01
  -3.640  0.0000E+00  0.8000E+01
  -3.630  0.0000E+00  0.8000E+01
  -3.620  0.0000E+00  0.8000E+01
  -3.610  0.0000E+00  0.8000E+01
  -3.600  0.0000E+00  0.8000E+01
  -3.590  0.0000E+00  0.8000E+01
  -3.580  0.0000E+00  0.8000E+01
  -3.570  0.0000E+00  0.8000E+01
  -3.560  0.0000E+00  0.8000E+01
  -3.550  0.0000E+00  0.8000E+01
  -3.540  0.0000E+00  0.8000E+01
  -3.530  0.0000E+00  0.8000E+01
  -3.520  0.0000E+00  0.8000E+01
  -3.510  0.0000E+00  0.8000E+01
  -3.500  0.0000E+00  0.8000E+01
  -3.490  0.0000E+00  0.8000E+01
  -3.480  0.0000E+00  0.8000E+01
  -3.470  0.0000E+00  0.8000E+01
  -3.460  0.0000E+00  0.8000E+01
  -3.450  0.0000E+00  0.8000E+01
  -3.440  0.0000E+00  0.8000E+01
  -3.430  0.0000E+00  0.8000E+01
  -3.420  0.0000E+00  0.8000E+01
  -3.410  0.0000E+00  0.8000E+01
  -3.400  0.0000E+00  0.8000E+01
  -3.390  0.0000E+00  0.8000E+01
  -3.380  0.0000E+00  0.8000E+01
  -3.370  0.0000E+00  0.8000E+01
  -3.360  0.0000E+00  0.8000E+01
  -3.350  0.0000E+00  0.8000E+01
  -3.340  0.0000E+00  0.8000E+01
  -3.330  0.0000E+00  0.8000E+01
  -3.320  0.0000E+00  0.8000E+01
  -3.310  0.0000E+00  0.8000E+01
  -3.300  0.0000E+00  0.8000E+01
  -3.290  0.0000E+00  0.8000E+01
  -3.280  0.0000E+00  0.8000E+01
  -3.270  0.0000E+00  0.8000E+01
  -3.260  0.0000E+00  0.8000E+01
  -3.250  0.0000E+00  0.8000E+01
  -3.240  0.0000E+00  0.8000E+01
  -3.230  0.0000E+00  0.8000E+01
  -3.220  0.0000E+00  0.8000E+01
  -3.210  0.0000E+00  0.8000E+01
  -3.200  0.0000E+00  0.8000E+01
  -3.190  0.0000E+00  0.8000E+01
  -3.180  0.0000E+00  0.8000E+01
  -3.170  0.0000E+00  0.8000E+01
  -3.160  0.0000E+00  0.8000E+01
  -3.150  0.0000E+00  0.8000E+01
  -3.140  0.0000E+00  0.8000E+01
  -3.130  0.0000E+00  0.8000E+01
  -3.120  0.0000E+00  0.8000E+01
  -3.110  0.0000E+00  0.8000E+01
  -3.100  0.0000E+00  0.8000E+01
  -3.090  0.0000E+00  0.8000E+01
  -3.080  0.0000E+00  0.8000E+01
  -3.070  0.0000E+00  0.8000E+01
  -3.060  0.0000E+00  0.8000E+01
  -3.050  0.0000E+00  0.8000E+01
  -3.040  0.0000E+00  0.8000E+01
  -3.030  0.0000E+00  0.8000E+01
  -3.020  0.0000E+00  0.8000E+01
  -3.010  0.0000E+00  0.8000E+01
  -3.000  0.0000E+00  0.8000E+01
  -2.990  0.0000E+00  0.8000E+01
  -2.980  0.0000E+00  0.8000E+01
  -2.970  0.0000E+00  0.8000E+01
  -2.960  0.0000E+00  0.8000E+01
  -2.950  0.0000E+00  0.8000E+01
  -2.940  0.0000E+00  0.8000E+01
  -2.930  0.0000E+00  0.8000E+01
  -2.920  0.0000E+00  0.8000E+01
  -2.910  0.0000E+00  0.8000E+01
  -2.900  0.0000E+00  0.8000E+01
  -2.890  0.0000E+00  0.8000E+01
  -2.880  0.0000E+00  0.8000E+01
  -2.870  0.0000E+00  0.8000E+01
  -2.860  0.0000E+00  0.8000E+01
  -2.850  0.0000E+00  0.8000E+01
  -2.840  0.0000E+00  0.8000E+01
  -2.830  0.0000E+00  0.8000E+01
  -2.820  0.0000E+00  0.8000E+01
  -2.810  0.0000E+00  0.8000E+01
  -2.800  0.0000E+00  0.8000E+01
  -2.790  0.0000E+00  0.8000E+01
  -2.780  0.0000E+00  0.8000E+01
  -2.770  0.0000E+00  0.8000E+01
  -2.760  0.0000E+00  0.8000E+01
  -2.750  0.0000E+00  0.8000E+01
  -2.740  0.0000E+00  0.8000E+01
  -2.730  0.0000E+00  0.8000E+01
  -2.720  0.0000E+00  0.8000E+01
  -2.710  0.0000E+00  0.8000E+01
  -2.700  0.0000E+00  0.8000E+01
  -2.690  0.0000E+00  0.8000E+01
  -2.680  0.0000E+00  0.8000E+01
  -2.670  0.0000E+00  0.8000E+01
  -2.660  0.0000E+00  0.8000E+01
  -2.650  0.0000E+00  0.8000E+01
  -2.640  0.0000E+00  0.8000E+01
  -2.630  0.0000E+00  0.8000E+01
  -2.620  0.0000E+00  0.8000E+01
  -2.610  0.0000E+00  0.8000E+01
  -2.600  0.0000E+00  0.8000E+01
  -2.590  0.0000E+00  0.8000E+01
  -2.580  0.0000E+00  0.8000E+01
  -2.570  0.0000E+00  0.8000E+01
  -2.560  0.0000E+00  0.8000E+01
  -2.550  0.0000E+00  0.8000E+01
  -2.540  0.0000E+00  0.8000E+01
  -2.530  0.0000E+00  0.8000E+01
  -2.520  0.0000E+00  0.8000E+01
  -2.510  0.0000E+00  0.8000E+01
  -2.500  0.0000E+00  0.8000E+01
  -2.490  0.0000E+00  0.8000E+01
  -2.480  0.0000E+00  0.8000E+01
  -2.470  0.0000E+00  0.8000E+01
  -2.460  0.0000E+00  0.8000E+01
  -2.450  0.0000E+00  0.8000E+01
  -2.440  0.0000E+00  0.8000E+01
  -2.430  0.0000E+00  0.8000E+01
  -2.420  0.0000E+00  0.8000E+01
  -2.410  0.0000E+00  0.8000E+01
  -2.400  0.0000E+00  0.8000E+01
  -2.390  0.0000E+00  0.8000E+01
  -2.380  0.0000E+00  0.8000E+01
  -2.370  0.0000E+00  0.8000E+01
  -2.360  0.0000E+00  0.8000E+01
  -2.350  0.0000E+00  0.8000E+01
  -2.340  0.0000E+00  0.8000E+01
  -2.330  0.0000E+00  0.8000E+01
  -2.320  0.0000E+00  0.8000E+01
  -2.310  0.0000E+00  0.8000E+01
  -2.300  0.0000E+00  0.8000E+01
  -2.290  0.0000E+00  0.8000E+01
  -2.280  0.0000E+00  0.8000E+01
  -2.270  0.0000E+00  0.8000E+01
  -2.260  0.0000E+00  0.8000E+01
  -2.250  0.0000E+00  0.8000E+01
  -2.240  0.0000E+00  0.8000E+01
  -2.230  0.0000E+00  0.8000E+01
  -2.220  0.0000E+00  0.8000E+01
  -2.210  0.0000E+00  0.8000E+01
  -2.200  0.0000E+00  0.8000E+01
  -2.190  0.0000E+00  0.8000E+01
  -2.180  0.0000E+00  0.8000E+01
  -2.170  0.0000E+00  0.8000E+01
  -2.160  0.0000E+00  0.8000E+01
  -2.150  0.0000E+00  0.8000E+01
  -2.140  0.0000E+00  0.8000E+01
  -2.130  0.0000E+00  0.8000E+01
  -2.120  0.0000E+00  0.8000E+01
  -2.110  0.0000E+00  0.8000E+01
  -2.100  0.0000E+00  0.8000E+01
  -2.090  0.0000E+00  0.8000E+01
  -2.080  0.0000E+00  0.8000E+01
  -2.070  0.0000E+00  0.8000E+01
  -2.060  0.0000E+00  0.8000E+01
  -2.050  0.0000E+00  0.8000E+01
  -2.040  0.0000E+00  0.8000E+01
  -2.030  0.0000E+00  0.8000E+01
  -2.020  0.0000E+00  0.8000E+01
  -2.010  0.0000E+00  0.8000E+01
  -2.000  0.0000E+00  0.8000E+01
  -1.990  0.0000E+00  0.8000E+01
  -1.980  0.0000E+00  0.8000E+01
  -1.970  0.0000E+00  0.8000E+01
  -1.960  0.0000E+00  0.8000E+01
  -1.950  0.0000E+00  0.8000E+01
  -1.940  0.0000E+00  0.8000E+01
  -1.930  0.0000E+00  0.8000E+01
  -1.920  0.0000E+00  0.8000E+01
  -1.910  0.0000E+00  0.8000E+01
  -1.900  0.0000E+00  0.8000E+01
  -1.890  0.0000E+00  0.8000E+01
  -1.880  0.0000E+00  0.8000E+01
  -1.870  0.0000E+00  0.8000E+01
  -1.860  0.0000E+00  0.8000E+01
  -1.850  0.0000E+00  0.8000E+01
  -1.840  0.0000E+00  0.8000E+01
  -1.830  0.0000E+00  0.8000E+01
  -1.820  0.0000E+00  0.8000E+01
  -1.810  0.0000E+00  0.8000E+01
  -1.800  0.0000E+00  0.8000E+01
  -1.790  0.0000E+00  0.8000E+01
  -1.780  0.0000E+00  0.8000E+01
  -1.770  0.0000E+00  0.8000E+01
  -1.760  0.0000E+00  0.8000E+01
  -1.750  0.0000E+00  0.8000E+01
  -1.740  0.0000E+00  0.8000E+01
  -1.730  0.0000E+00  0.8000E+01
  -1.720  0.0000E+00  0.8000E+01
  -1.710  0.0000E+00  0.8000E+01
  -1.700  0.0000E+00  0.8000E+01
  -1.690  0.0000E+00  0.8000E+01
  -1.680  0.0000E+00  0.8000E+01
  -1.670  0.0000E+00  0.8000E+01
  -1.660  0.0000E+00  0.8000E+01
  -1.650  0.0000E+00  0.8000E+01
  -1.640  0.0000E+00  0.8000E+01
  -1.630  0.0000E+00  0.8000E+01
  -1.620  0.0000E+00  0.8000E+01
  -1.610  0.0000E+00  0.8000E+01
  -1.600  0.0000E+00  0.8000E+01
  -1.590  0.0000E+00  0.8000E+01
  -1.580  0.0000E+00  0.8000E+01
  -1.570  0.0000E+00  0.8000E+01
  -1.560  0.0000E+00  0.8000E+01
  -1.550  0.0000E+00  0.8000E+01
  -1.540  0.0000E+00  0.8000E+01
  -1.530  0.0000E+00  0.8000E+01
  -1.520  0.0000E+00  0.8000E+01
  -1.510  0.0000E+00  0.8000E+01
  -1.500  0.0000E+00  0.8000E+01
  -1.490  0.0000E+00  0.8000E+01
  -1.480  0.0000E+00  0.8000E+01
  -1.470  0.0000E+00  0.8000E+01
  -1.460  0.0000E+00  0.8000E+01
  -1.450  0.0000E+00  0.8000E+01
  -1.440  0.0000E+00  0.8000E+01
  -1.430  0.0000E+00  0.8000E+01
  -1.420  0.0000E+00  0.8000E+01
  -1.410  0.0000E+00  0.8000E+01
  -1.400  0.0000E+00  0.8000E+01
  -1.390  0.0000E+00  0.8000E+01
  -1.380  0.0000E+00  0.8000E+01
  -1.370  0.0000E+00  0.8000E+01
  -1.360  0.0000E+00  0.8000E+01
  -1.350  0.0000E+00  0.8000E+01
  -1.340  0.0000E+00  0.8000E+01
  -1.330  0.0000E+00  0.8000E+01
  -1.320  0.0000E+00  0.8000E+01
  -1.310  0.0000E+00  0.8000E+01
  -1.300  0.0000E+00  0.8000E+01
  -1.290  0.0000E+00  0.8000E+01
  -1.280  0.1098E+00  0.8000E+01
  -1.270  0.6079E+00  0.8004E+01
  -1.260  0.1288E+01  0.8013E+01
  -1.250  0.1629E+01  0.8029E+01
  -1.240  0.1593E+01  0.8045E+01
  -1.230  0.1642E+01  0.8061E+01
  -1.220  0.1617E+01  0.8078E+01
  -1.210  0.2538E+01  0.8096E+01
  -1.200  0.2751E+01  0.8121E+01
  -1.190  0.3104E+01  0.8150E+01
  -1.180  0.3179E+01  0.8182E+01
  -1.170  0.3222E+01  0.8214E+01
  -1.160  0.3204E+01  0.8246E+01
  -1.150  0.3238E+01  0.8278E+01
  -1.140  0.3264E+01  0.8311E+01
  -1.130  0.3292E+01  0.8344E+01
  -1.120  0.3329E+01  0.8377E+01
  -1.110  0.3338E+01  0.8410E+01
  -1.100  0.3363E+01  0.8443E+01
  -1.090  0.3390E+01  0.8477E+01
  -1.080  0.3428E+01  0.8511E+01
  -1.070  0.3455E+01  0.8546E+01
  -1.060  0.3464E+01  0.8580E+01
  -1.050  0.3505E+01  0.8615E+01
  -1.040  0.3547E+01  0.8650E+01
  -1.030  0.3597E+01  0.8686E+01
  -1.020  0.3626E+01  0.8722E+01
  -1.010  0.3643E+01  0.8759E+01
  -1.000  0.3699E+01  0.8795E+01
  -0.990  0.3757E+01  0.8833E+01
  -0.980  0.3806E+01  0.8870E+01
  -0.970  0.3860E+01  0.8909E+01
  -0.960  0.3904E+01  0.8948E+01
  -0.950  0.3956E+01  0.8987E+01
  -0.940  0.4044E+01  0.9027E+01
  -0.930  0.4114E+01  0.9068E+01
  -0.920  0.4203E+01  0.9109E+01
  -0.910  0.4285E+01  0.9152E+01
  -0.900  0.4374E+01  0.9195E+01
  -0.890  0.4520E+01  0.9239E+01
  -0.880  0.4652E+01  0.9285E+01
  -0.870  0.4852E+01  0.9333E+01
  -0.860  0.5084E+01  0.9382E+01
  -0.850  0.5487E+01  0.9435E+01
  -0.840  0.5951E+01  0.9492E+01
  -0.830  0.6169E+01  0.9553E+01
  -0.820  0.6213E+01  0.9616E+01
  -0.810  0.5547E+01  0.9673E+01
  -0.800  0.5406E+01  0.9728E+01
  -0.790  0.5355E+01  0.9781E+01
  -0.780  0.5485E+01  0.9835E+01
  -0.770  0.6025E+01  0.9895E+01
  -0.760  0.5765E+01  0.9954E+01
  -0.750  0.5262E+01  0.1001E+02
  -0.740  0.4661E+01  0.1006E+02
  -0.730  0.4370E+01  0.1010E+02
  -0.720  0.4105E+01  0.1015E+02
  -0.710  0.3878E+01  0.1019E+02
  -0.700  0.3677E+01  0.1022E+02
  -0.690  0.3573E+01  0.1026E+02
  -0.680  0.3360E+01  0.1029E+02
  -0.670  0.3279E+01  0.1033E+02
  -0.660  0.3133E+01  0.1036E+02
  -0.650  0.3039E+01  0.1039E+02
  -0.640  0.2889E+01  0.1042E+02
  -0.630  0.2863E+01  0.1045E+02
  -0.620  0.2677E+01  0.1048E+02
  -0.610  0.2005E+01  0.1050E+02
  -0.600  0.1966E+01  0.1052E+02
  -0.590  0.1934E+01  0.1054E+02
  -0.580  0.1915E+01  0.1056E+02
  -0.570  0.1908E+01  0.1058E+02
  -0.560  0.1901E+01  0.1060E+02
  -0.550  0.1899E+01  0.1062E+02
  -0.540  0.1900E+01  0.1064E+02
  -0.530  0.1903E+01  0.1065E+02
  -0.520  0.1908E+01  0.1067E+02
  -0.510  0.1912E+01  0.1069E+02
  -0.500  0.1915E+01  0.1071E+02
  -0.490  0.1922E+01  0.1073E+02
  -0.480  0.1931E+01  0.1075E+02
  -0.470  0.1939E+01  0.1077E+02
  -0.460  0.1951E+01  0.1079E+02
  -0.450  0.2106E+01  0.1081E+02
  -0.440  0.2091E+01  0.1083E+02
  -0.430  0.2106E+01  0.1085E+02
  -0.420  0.2078E+01  0.1087E+02
  -0.410  0.2069E+01  0.1089E+02
  -0.400  0.2064E+01  0.1091E+02
  -0.390  0.2041E+01  0.1094E+02
  -0.380  0.2034E+01  0.1096E+02
  -0.370  0.2039E+01  0.1098E+02
  -0.360  0.2010E+01  0.1100E+02
  -0.350  0.2007E+01  0.1102E+02
  -0.340  0.2002E+01  0.1104E+02
  -0.330  0.2000E+01  0.1106E+02
  -0.320  0.1984E+01  0.1108E+02
  -0.310  0.1982E+01  0.1110E+02
  -0.300  0.1981E+01  0.1112E+02
  -0.290  0.1983E+01  0.1114E+02
  -0.280  0.1977E+01  0.1116E+02
  -0.270  0.1972E+01  0.1118E+02
  -0.260  0.1974E+01  0.1119E+02
  -0.250  0.1980E+01  0.1121E+02
  -0.240  0.1988E+01  0.1123E+02
  -0.230  0.1990E+01  0.1125E+02
  -0.220  0.1997E+01  0.1127E+02
  -0.210  0.2007E+01  0.1129E+02
  -0.200  0.2019E+01  0.1131E+02
  -0.190  0.2035E+01  0.1133E+02
  -0.180  0.2182E+01  0.1136E+02
  -0.170  0.2425E+01  0.1138E+02
  -0.160  0.2810E+01  0.1140E+02
  -0.150  0.3321E+01  0.1144E+02
  -0.140  0.3440E+01  0.1147E+02
  -0.130  0.3740E+01  0.1150E+02
  -0.120  0.4058E+01  0.1154E+02
  -0.110  0.4639E+01  0.1159E+02
  -0.100  0.4766E+01  0.1163E+02
  -0.090  0.4510E+01  0.1168E+02
  -0.080  0.3576E+01  0.1172E+02
  -0.070  0.4247E+01  0.1176E+02
  -0.060  0.5964E+01  0.1181E+02
  -0.050  0.6199E+01  0.1188E+02
  -0.040  0.6040E+01  0.1194E+02
  -0.030  0.6072E+01  0.1200E+02
  -0.020  0.7530E+01  0.1206E+02
  -0.010  0.4700E+01  0.1213E+02
   0.000  0.4484E+01  0.1218E+02
   0.010  0.4334E+01  0.1222E+02
   0.020  0.4188E+01  0.1226E+02
   0.030  0.4062E+01  0.1230E+02
   0.040  0.3888E+01  0.1234E+02
   0.050  0.3767E+01  0.1238E+02
   0.060  0.3683E+01  0.1242E+02
   0.070  0.3630E+01  0.1246E+02
   0.080  0.3592E+01  0.1249E+02
   0.090  0.3528E+01  0.1253E+02
   0.100  0.3460E+01  0.1256E+02
   0.110  0.3447E+01  0.1260E+02
   0.120  0.3432E+01  0.1263E+02
   0.130  0.3433E+01  0.1267E+02
   0.140  0.3466E+01  0.1270E+02
   0.150  0.3538E+01  0.1273E+02
   0.160  0.3601E+01  0.1277E+02
   0.170  0.3681E+01  0.1281E+02
   0.180  0.3913E+01  0.1284E+02
   0.190  0.4210E+01  0.1289E+02
   0.200  0.4268E+01  0.1293E+02
   0.210  0.4170E+01  0.1297E+02
   0.220  0.3944E+01  0.1301E+02
   0.230  0.4049E+01  0.1305E+02
   0.240  0.4141E+01  0.1309E+02
   0.250  0.3978E+01  0.1313E+02
   0.260  0.3544E+01  0.1317E+02
   0.270  0.3356E+01  0.1320E+02
   0.280  0.3207E+01  0.1324E+02
   0.290  0.3129E+01  0.1327E+02
   0.300  0.3101E+01  0.1330E+02
   0.310  0.2980E+01  0.1333E+02
   0.320  0.2923E+01  0.1336E+02
   0.330  0.2882E+01  0.1339E+02
   0.340  0.2832E+01  0.1342E+02
   0.350  0.2811E+01  0.1344E+02
   0.360  0.2809E+01  0.1347E+02
   0.370  0.2790E+01  0.1350E+02
   0.380  0.2744E+01  0.1353E+02
   0.390  0.2717E+01  0.1356E+02
   0.400  0.2718E+01  0.1358E+02
   0.410  0.3321E+01  0.1361E+02
   0.420  0.3558E+01  0.1365E+02
   0.430  0.4045E+01  0.1369E+02
   0.440  0.4197E+01  0.1373E+02
   0.450  0.4314E+01  0.1377E+02
   0.460  0.4474E+01  0.1381E+02
   0.470  0.4541E+01  0.1386E+02
   0.480  0.5142E+01  0.1391E+02
   0.490  0.5656E+01  0.1396E+02
   0.500  0.6141E+01  0.1402E+02
   0.510  0.5570E+01  0.1408E+02
   0.520  0.5592E+01  0.1413E+02
   0.530  0.5607E+01  0.1419E+02
   0.540  0.5638E+01  0.1425E+02
   0.550  0.5791E+01  0.1430E+02
   0.560  0.6029E+01  0.1436E+02
   0.570  0.6481E+01  0.1442E+02
   0.580  0.7024E+01  0.1449E+02
   0.590  0.6962E+01  0.1456E+02
   0.600  0.6354E+01  0.1463E+02
   0.610  0.5864E+01  0.1469E+02
   0.620  0.5844E+01  0.1475E+02
   0.630  0.5600E+01  0.1481E+02
   0.640  0.5330E+01  0.1486E+02
   0.650  0.4688E+01  0.1491E+02
   0.660  0.4599E+01  0.1496E+02
   0.670  0.4597E+01  0.1500E+02
   0.680  0.4608E+01  0.1505E+02
   0.690  0.4622E+01  0.1510E+02
   0.700  0.4656E+01  0.1514E+02
   0.710  0.4751E+01  0.1519E+02
   0.720  0.4833E+01  0.1524E+02
   0.730  0.4898E+01  0.1529E+02
   0.740  0.4999E+01  0.1533E+02
   0.750  0.5180E+01  0.1539E+02
   0.760  0.5327E+01  0.1544E+02
   0.770  0.5378E+01  0.1549E+02
   0.780  0.5300E+01  0.1555E+02
   0.790  0.5194E+01  0.1560E+02
   0.800  0.5068E+01  0.1565E+02
   0.810  0.4969E+01  0.1570E+02
   0.820  0.4887E+01  0.1575E+02
   0.830  0.5124E+01  0.1580E+02
   0.840  0.4671E+01  0.1585E+02
   0.850  0.4251E+01  0.1589E+02
   0.860  0.3609E+01  0.1593E+02
   0.870  0.3044E+01  0.1596E+02
   0.880  0.3057E+01  0.1599E+02
   0.890  0.3071E+01  0.1602E+02
   0.900  0.3083E+01  0.1606E+02
   0.910  0.3182E+01  0.1609E+02
   0.920  0.4735E+01  0.1613E+02
   0.930  0.4818E+01  0.1618E+02
   0.940  0.4610E+01  0.1623E+02
   0.950  0.4421E+01  0.1627E+02
   0.960  0.4431E+01  0.1632E+02
   0.970  0.4435E+01  0.1636E+02
   0.980  0.4484E+01  0.1641E+02
   0.990  0.4513E+01  0.1645E+02
   1.000  0.4592E+01  0.1650E+02
   1.010  0.4707E+01  0.1654E+02
   1.020  0.4850E+01  0.1659E+02
   1.030  0.5002E+01  0.1664E+02
   1.040  0.5156E+01  0.1669E+02
   1.050  0.5351E+01  0.1674E+02
   1.060  0.5666E+01  0.1680E+02
   1.070  0.6385E+01  0.1686E+02
   1.080  0.6831E+01  0.1692E+02
   1.090  0.6798E+01  0.1699E+02
   1.100  0.7009E+01  0.1706E+02
   1.110  0.7242E+01  0.1713E+02
   1.120  0.8274E+01  0.1721E+02
   1.130  0.7385E+01  0.1729E+02
   1.140  0.7074E+01  0.1736E+02
   1.150  0.6864E+01  0.1743E+02
   1.160  0.6878E+01  0.1750E+02
   1.170  0.6981E+01  0.1757E+02
   1.180  0.7323E+01  0.1764E+02
   1.190  0.7664E+01  0.1771E+02
   1.200  0.8570E+01  0.1779E+02
   1.210  0.9900E+01  0.1789E+02
   1.220  0.7763E+01  0.1797E+02
   1.230  0.6859E+01  0.1805E+02
   1.240  0.6520E+01  0.1812E+02
   1.250  0.6785E+01  0.1818E+02
   1.260  0.5988E+01  0.1824E+02
   1.270  0.5669E+01  0.1830E+02
   1.280  0.5264E+01  0.1836E+02
   1.290  0.5671E+01  0.1841E+02
   1.300  0.6304E+01  0.1847E+02
   1.310  0.6089E+01  0.1854E+02
   1.320  0.5375E+01  0.1860E+02
   1.330  0.5245E+01  0.1865E+02
   1.340  0.5294E+01  0.1870E+02
   1.350  0.5180E+01  0.1875E+02
   1.360  0.5173E+01  0.1881E+02
   1.370  0.5268E+01  0.1886E+02
   1.380  0.5130E+01  0.1891E+02
   1.390  0.5033E+01  0.1896E+02
   1.400  0.5063E+01  0.1901E+02
   1.410  0.4900E+01  0.1906E+02
   1.420  0.4959E+01  0.1911E+02
   1.430  0.5008E+01  0.1916E+02
   1.440  0.4967E+01  0.1921E+02
   1.450  0.5001E+01  0.1926E+02
   1.460  0.5255E+01  0.1931E+02
   1.470  0.5400E+01  0.1936E+02
   1.480  0.5662E+01  0.1942E+02
   1.490  0.6074E+01  0.1948E+02
   1.500  0.6471E+01  0.1954E+02
   1.510  0.6451E+01  0.1960E+02
   1.520  0.6585E+01  0.1967E+02
   1.530  0.6748E+01  0.1974E+02
   1.540  0.6357E+01  0.1980E+02
   1.550  0.5908E+01  0.1986E+02
   1.560  0.5566E+01  0.1992E+02
   1.570  0.5201E+01  0.1997E+02
   1.580  0.5039E+01  0.2003E+02
   1.590  0.4997E+01  0.2008E+02
   1.600  0.4842E+01  0.2012E+02
   1.610  0.4772E+01  0.2017E+02
   1.620  0.4850E+01  0.2022E+02
   1.630  0.4765E+01  0.2027E+02
   1.640  0.4870E+01  0.2032E+02
   1.650  0.4780E+01  0.2036E+02
   1.660  0.4850E+01  0.2041E+02
   1.670  0.4795E+01  0.2046E+02
   1.680  0.5174E+01  0.2051E+02
   1.690  0.5378E+01  0.2056E+02
   1.700  0.5460E+01  0.2062E+02
   1.710  0.5780E+01  0.2067E+02
   1.720  0.3644E+01  0.2072E+02
   1.730  0.3832E+01  0.2076E+02
   1.740  0.3750E+01  0.2080E+02
   1.750  0.3749E+01  0.2083E+02
   1.760  0.3775E+01  0.2087E+02
   1.770  0.3879E+01  0.2091E+02
   1.780  0.3905E+01  0.2095E+02
   1.790  0.3978E+01  0.2099E+02
   1.800  0.4108E+01  0.2103E+02
   1.810  0.4170E+01  0.2107E+02
   1.820  0.4399E+01  0.2111E+02
   1.830  0.4399E+01  0.2116E+02
   1.840  0.4408E+01  0.2120E+02
   1.850  0.4331E+01  0.2125E+02
   1.860  0.4378E+01  0.2129E+02
   1.870  0.4414E+01  0.2133E+02
   1.880  0.4443E+01  0.2138E+02
   1.890  0.4462E+01  0.2142E+02
   1.900  0.4509E+01  0.2147E+02
   1.910  0.4571E+01  0.2151E+02
   1.920  0.4535E+01  0.2156E+02
   1.930  0.4445E+01  0.2160E+02
   1.940  0.4394E+01  0.2165E+02
   1.950  0.4372E+01  0.2169E+02
   1.960  0.4348E+01  0.2174E+02
   1.970  0.4333E+01  0.2178E+02
   1.980  0.4336E+01  0.2182E+02
   1.990  0.4360E+01  0.2187E+02
   2.000  0.4378E+01  0.2191E+02
   2.010  0.4387E+01  0.2195E+02
   2.020  0.4413E+01  0.2200E+02
   2.030  0.4430E+01  0.2204E+02
   2.040  0.4476E+01  0.2209E+02
   2.050  0.4523E+01  0.2213E+02
   2.060  0.4558E+01  0.2218E+02
   2.070  0.4555E+01  0.2222E+02
   2.080  0.4550E+01  0.2227E+02
   2.090  0.4582E+01  0.2231E+02
   2.100  0.4619E+01  0.2236E+02
   2.110  0.4400E+01  0.2240E+02
   2.120  0.4257E+01  0.2245E+02
   2.130  0.4280E+01  0.2249E+02
   2.140  0.4593E+01  0.2253E+02
   2.150  0.4292E+01  0.2258E+02
   2.160  0.3932E+01  0.2262E+02
   2.170  0.3833E+01  0.2266E+02
   2.180  0.3031E+01  0.2270E+02
   2.190  0.2765E+01  0.2272E+02
   2.200  0.2727E+01  0.2275E+02
   2.210  0.2690E+01  0.2278E+02
   2.220  0.2678E+01  0.2280E+02
   2.230  0.2672E+01  0.2283E+02
   2.240  0.2685E+01  0.2286E+02
   2.250  0.2665E+01  0.2288E+02
   2.260  0.2676E+01  0.2291E+02
   2.270  0.2819E+01  0.2294E+02
   2.280  0.2732E+01  0.2297E+02
   2.290  0.2700E+01  0.2299E+02
   2.300  0.2629E+01  0.2302E+02
   2.310  0.2632E+01  0.2305E+02
   2.320  0.2474E+01  0.2307E+02
   2.330  0.2467E+01  0.2310E+02
   2.340  0.2534E+01  0.2312E+02
   2.350  0.2662E+01  0.2315E+02
   2.360  0.2874E+01  0.2318E+02
   2.370  0.3281E+01  0.2321E+02
   2.380  0.3288E+01  0.2324E+02
   2.390  0.3229E+01  0.2327E+02
   2.400  0.3257E+01  0.2331E+02
   2.410  0.3280E+01  0.2334E+02
   2.420  0.3280E+01  0.2337E+02
   2.430  0.3264E+01  0.2340E+02
   2.440  0.3212E+01  0.2344E+02
   2.450  0.3319E+01  0.2347E+02
   2.460  0.3309E+01  0.2350E+02
   2.470  0.3291E+01  0.2354E+02
   2.480  0.3451E+01  0.2357E+02
   2.490  0.3284E+01  0.2360E+02
   2.500  0.2785E+01  0.2363E+02
   2.510  0.2721E+01  0.2366E+02
   2.520  0.2674E+01  0.2369E+02
   2.530  0.2633E+01  0.2372E+02
   2.540  0.2602E+01  0.2374E+02
   2.550  0.2550E+01  0.2377E+02
   2.560  0.2584E+01  0.2379E+02
   2.570  0.2638E+01  0.2382E+02
   2.580  0.2701E+01  0.2385E+02
   2.590  0.2709E+01  0.2387E+02
   2.600  0.2709E+01  0.2390E+02
   2.610  0.2697E+01  0.2393E+02
   2.620  0.2681E+01  0.2395E+02
   2.630  0.2605E+01  0.2398E+02
   2.640  0.2549E+01  0.2401E+02
   2.650  0.2513E+01  0.2403E+02
   2.660  0.2649E+01  0.2406E+02
   2.670  0.2764E+01  0.2408E+02
   2.680  0.2927E+01  0.2411E+02
   2.690  0.3119E+01  0.2414E+02
   2.700  0.3384E+01  0.2418E+02
   2.710  0.3621E+01  0.2421E+02
   2.720  0.4397E+01  0.2425E+02
   2.730  0.4698E+01  0.2429E+02
   2.740  0.5631E+01  0.2434E+02
   2.750  0.5976E+01  0.2440E+02
   2.760  0.5679E+01  0.2446E+02
   2.770  0.4392E+01  0.2451E+02
   2.780  0.4325E+01  0.2455E+02
   2.790  0.4290E+01  0.2460E+02
   2.800  0.4296E+01  0.2464E+02
   2.810  0.4287E+01  0.2468E+02
   2.820  0.4258E+01  0.2472E+02
   2.830  0.4143E+01  0.2477E+02
   2.840  0.4095E+01  0.2481E+02
   2.850  0.4127E+01  0.2485E+02
   2.860  0.4739E+01  0.2489E+02
   2.870  0.4733E+01  0.2494E+02
   2.880  0.4798E+01  0.2499E+02
   2.890  0.4772E+01  0.2504E+02
   2.900  0.4839E+01  0.2508E+02
   2.910  0.4805E+01  0.2513E+02
   2.920  0.4813E+01  0.2518E+02
   2.930  0.4767E+01  0.2523E+02
   2.940  0.4803E+01  0.2528E+02
   2.950  0.4750E+01  0.2532E+02
   2.960  0.4838E+01  0.2537E+02
   2.970  0.4771E+01  0.2542E+02
   2.980  0.4774E+01  0.2547E+02
   2.990  0.4584E+01  0.2552E+02
   3.000  0.4416E+01  0.2556E+02
   3.010  0.4295E+01  0.2560E+02
   3.020  0.4219E+01  0.2565E+02
   3.030  0.4182E+01  0.2569E+02
   3.040  0.4194E+01  0.2573E+02
   3.050  0.6357E+01  0.2577E+02
   3.060  0.5788E+01  0.2583E+02
   3.070  0.6656E+01  0.2589E+02
   3.080  0.5671E+01  0.2596E+02
   3.090  0.5131E+01  0.2601E+02
   3.100  0.2733E+01  0.2605E+02
   3.110  0.1552E+01  0.2607E+02
   3.120  0.1586E+01  0.2608E+02
   3.130  0.1693E+01  0.2610E+02
   3.140  0.1816E+01  0.2612E+02
   3.150  0.1922E+01  0.2613E+02
   3.160  0.1977E+01  0.2615E+02
   3.170  0.2068E+01  0.2617E+02
   3.180  0.2190E+01  0.2619E+02
   3.190  0.2313E+01  0.2622E+02
   3.200  0.2435E+01  0.2624E+02
   3.210  0.2564E+01  0.2627E+02
   3.220  0.2707E+01  0.2629E+02
   3.230  0.3104E+01  0.2632E+02
   3.240  0.3268E+01  0.2635E+02
   3.250  0.3488E+01  0.2639E+02
   3.260  0.5090E+01  0.2642E+02
   3.270  0.6102E+01  0.2648E+02
   3.280  0.8913E+01  0.2655E+02
   3.290  0.3497E+01  0.2662E+02
   3.300  0.2988E+01  0.2665E+02
   3.310  0.2691E+01  0.2668E+02
   3.320  0.2439E+01  0.2671E+02
   3.330  0.2558E+01  0.2673E+02
   3.340  0.3825E+01  0.2676E+02
   3.350  0.3889E+01  0.2680E+02
   3.360  0.4693E+01  0.2684E+02
   3.370  0.4685E+01  0.2688E+02
   3.380  0.5132E+01  0.2693E+02
   3.390  0.5525E+01  0.2698E+02
   3.400  0.6224E+01  0.2704E+02
   3.410  0.6949E+01  0.2711E+02
   3.420  0.8624E+01  0.2719E+02
   3.430  0.1005E+02  0.2728E+02
   3.440  0.8884E+01  0.2738E+02
   3.450  0.7346E+01  0.2746E+02
   3.460  0.7137E+01  0.2753E+02
   3.470  0.6772E+01  0.2760E+02
   3.480  0.6440E+01  0.2767E+02
   3.490  0.6380E+01  0.2773E+02
   3.500  0.6403E+01  0.2780E+02
   3.510  0.6394E+01  0.2786E+02
   3.520  0.6382E+01  0.2792E+02
   3.530  0.6476E+01  0.2799E+02
   3.540  0.6697E+01  0.2805E+02
   3.550  0.8290E+01  0.2812E+02
   3.560  0.6671E+01  0.2820E+02
   3.570  0.6144E+01  0.2826E+02
   3.580  0.5801E+01  0.2832E+02
   3.590  0.5532E+01  0.2838E+02
   3.600  0.5258E+01  0.2843E+02
   3.610  0.4978E+01  0.2849E+02
   3.620  0.4638E+01  0.2853E+02
   3.630  0.4043E+01  0.2858E+02
   3.640  0.3681E+01  0.2862E+02
   3.650  0.3394E+01  0.2865E+02
   3.660  0.3133E+01  0.2868E+02
   3.670  0.2810E+01  0.2871E+02
   3.680  0.2610E+01  0.2874E+02
   3.690  0.2453E+01  0.2877E+02
   3.700  0.2305E+01  0.2879E+02
   3.710  0.2198E+01  0.2881E+02
   3.720  0.2109E+01  0.2883E+02
   3.730  0.2040E+01  0.2885E+02
   3.740  0.1984E+01  0.2887E+02
   3.750  0.1945E+01  0.2889E+02
   3.760  0.1919E+01  0.2891E+02
   3.770  0.1899E+01  0.2893E+02
   3.780  0.1882E+01  0.2895E+02
   3.790  0.1868E+01  0.2897E+02
   3.800  0.1856E+01  0.2899E+02
   3.810  0.1849E+01  0.2901E+02
   3.820  0.1839E+01  0.2903E+02
   3.830  0.1824E+01  0.2904E+02
   3.840  0.1815E+01  0.2906E+02
   3.850  0.1807E+01  0.2908E+02
   3.860  0.1794E+01  0.2910E+02
   3.870  0.1786E+01  0.2912E+02
   3.880  0.1784E+01  0.2913E+02
   3.890  0.1785E+01  0.2915E+02
   3.900  0.1786E+01  0.2917E+02
   3.910  0.1789E+01  0.2919E+02
   3.920  0.1792E+01  0.2921E+02
   3.930  0.1796E+01  0.2922E+02
   3.940  0.1803E+01  0.2924E+02
   3.950  0.1812E+01  0.2926E+02
   3.960  0.1821E+01  0.2928E+02
   3.970  0.1830E+01  0.2930E+02
   3.980  0.1845E+01  0.2931E+02
   3.990  0.1866E+01  0.2933E+02
   4.000  0.1884E+01  0.2935E+02
   4.010  0.1897E+01  0.2937E+02
   4.020  0.1908E+01  0.2939E+02
   4.030  0.1919E+01  0.2941E+02
   4.040  0.1934E+01  0.2943E+02
   4.050  0.1953E+01  0.2945E+02
   4.060  0.1973E+01  0.2947E+02
   4.070  0.1994E+01  0.2949E+02
   4.080  0.2016E+01  0.2951E+02
   4.090  0.2044E+01  0.2953E+02
   4.100  0.2086E+01  0.2955E+02
   4.110  0.2140E+01  0.2957E+02
   4.120  0.2162E+01  0.2959E+02
   4.130  0.2174E+01  0.2961E+02
   4.140  0.2193E+01  0.2963E+02
   4.150  0.2209E+01  0.2966E+02
   4.160  0.2224E+01  0.2968E+02
   4.170  0.2239E+01  0.2970E+02
   4.180  0.2254E+01  0.2972E+02
   4.190  0.2266E+01  0.2975E+02
   4.200  0.2286E+01  0.2977E+02
   4.210  0.2306E+01  0.2979E+02
   4.220  0.2324E+01  0.2981E+02
   4.230  0.2342E+01  0.2984E+02
   4.240  0.2389E+01  0.2986E+02
   4.250  0.2442E+01  0.2989E+02
   4.260  0.2518E+01  0.2991E+02
   4.270  0.2583E+01  0.2994E+02
   4.280  0.2647E+01  0.2996E+02
   4.290  0.2714E+01  0.2999E+02
   4.300  0.2784E+01  0.3002E+02
   4.310  0.2948E+01  0.3004E+02
   4.320  0.3307E+01  0.3008E+02
   4.330  0.3596E+01  0.3011E+02
   4.340  0.3547E+01  0.3015E+02
   4.350  0.3278E+01  0.3018E+02
   4.360  0.3019E+01  0.3021E+02
   4.370  0.2762E+01  0.3024E+02
   4.380  0.2618E+01  0.3027E+02
   4.390  0.2660E+01  0.3029E+02
   4.400  0.2424E+01  0.3032E+02
   4.410  0.2359E+01  0.3034E+02
   4.420  0.2297E+01  0.3037E+02
   4.430  0.2354E+01  0.3039E+02
   4.440  0.2346E+01  0.3041E+02
   4.450  0.2145E+01  0.3043E+02
   4.460  0.2111E+01  0.3046E+02
   4.470  0.2192E+01  0.3048E+02
   4.480  0.2038E+01  0.3050E+02
   4.490  0.2004E+01  0.3052E+02
   4.500  0.1994E+01  0.3054E+02
   4.510  0.1973E+01  0.3056E+02
   4.520  0.1972E+01  0.3058E+02
   4.530  0.1920E+01  0.3060E+02
   4.540  0.1887E+01  0.3062E+02
   4.550  0.1861E+01  0.3064E+02
   4.560  0.1987E+01  0.3066E+02
   4.570  0.2012E+01  0.3068E+02
   4.580  0.2124E+01  0.3070E+02
   4.590  0.2102E+01  0.3072E+02
   4.600  0.2269E+01  0.3074E+02
   4.610  0.2264E+01  0.3077E+02
   4.620  0.1529E+01  0.3078E+02
   4.630  0.1515E+01  0.3080E+02
   4.640  0.1529E+01  0.3081E+02
   4.650  0.1505E+01  0.3083E+02
   4.660  0.1534E+01  0.3084E+02
   4.670  0.1467E+01  0.3086E+02
   4.680  0.1449E+01  0.3087E+02
   4.690  0.1431E+01  0.3089E+02
   4.700  0.1418E+01  0.3090E+02
   4.710  0.1441E+01  0.3092E+02
   4.720  0.1430E+01  0.3093E+02
   4.730  0.1435E+01  0.3095E+02
   4.740  0.1388E+01  0.3096E+02
   4.750  0.1375E+01  0.3097E+02
   4.760  0.1361E+01  0.3099E+02
   4.770  0.1355E+01  0.3100E+02
   4.780  0.1393E+01  0.3101E+02
   4.790  0.1493E+01  0.3103E+02
   4.800  0.1538E+01  0.3104E+02
   4.810  0.1531E+01  0.3106E+02
   4.820  0.1557E+01  0.3107E+02
   4.830  0.1586E+01  0.3109E+02
   4.840  0.1612E+01  0.3111E+02
   4.850  0.1636E+01  0.3112E+02
   4.860  0.1694E+01  0.3114E+02
   4.870  0.1785E+01  0.3116E+02
   4.880  0.1802E+01  0.3117E+02
   4.890  0.1770E+01  0.3119E+02
   4.900  0.1779E+01  0.3121E+02
   4.910  0.1775E+01  0.3123E+02
   4.920  0.1755E+01  0.3125E+02
   4.930  0.1745E+01  0.3126E+02
   4.940  0.1762E+01  0.3128E+02
   4.950  0.1802E+01  0.3130E+02
   4.960  0.1787E+01  0.3132E+02
   4.970  0.1747E+01  0.3133E+02
   4.980  0.1721E+01  0.3135E+02
   4.990  0.1692E+01  0.3137E+02
   5.000  0.1661E+01  0.3139E+02
   5.010  0.1634E+01  0.3140E+02
   5.020  0.1596E+01  0.3142E+02
   5.030  0.1585E+01  0.3143E+02
   5.040  0.1614E+01  0.3145E+02
   5.050  0.1937E+01  0.3147E+02
   5.060  0.2733E+01  0.3149E+02
   5.070  0.2340E+01  0.3151E+02
   5.080  0.2146E+01  0.3154E+02
   5.090  0.2051E+01  0.3156E+02
   5.100  0.2015E+01  0.3158E+02
   5.110  0.1848E+01  0.3160E+02
   5.120  0.1788E+01  0.3162E+02
   5.130  0.1749E+01  0.3163E+02
   5.140  0.1658E+01  0.3165E+02
   5.150  0.1623E+01  0.3167E+02
   5.160  0.1599E+01  0.3168E+02
   5.170  0.1604E+01  0.3170E+02
   5.180  0.1620E+01  0.3172E+02
   5.190  0.1656E+01  0.3173E+02
   5.200  0.2069E+01  0.3175E+02
   5.210  0.2525E+01  0.3177E+02
   5.220  0.2689E+01  0.3180E+02
   5.230  0.2621E+01  0.3183E+02
   5.240  0.2331E+01  0.3185E+02
   5.250  0.2210E+01  0.3187E+02
   5.260  0.2249E+01  0.3189E+02
   5.270  0.2319E+01  0.3192E+02
   5.280  0.2404E+01  0.3194E+02
   5.290  0.2504E+01  0.3197E+02
   5.300  0.2601E+01  0.3199E+02
   5.310  0.2706E+01  0.3202E+02
   5.320  0.2803E+01  0.3205E+02
   5.330  0.2892E+01  0.3207E+02
   5.340  0.2984E+01  0.3210E+02
   5.350  0.3079E+01  0.3213E+02
   5.360  0.3190E+01  0.3216E+02
   5.370  0.3319E+01  0.3220E+02
   5.380  0.3428E+01  0.3223E+02
   5.390  0.3583E+01  0.3227E+02
   5.400  0.3740E+01  0.3230E+02
   5.410  0.4813E+01  0.3235E+02
   5.420  0.4652E+01  0.3240E+02
   5.430  0.4659E+01  0.3244E+02
   5.440  0.4715E+01  0.3249E+02
   5.450  0.4765E+01  0.3254E+02
   5.460  0.4951E+01  0.3259E+02
   5.470  0.5143E+01  0.3264E+02
   5.480  0.5324E+01  0.3269E+02
   5.490  0.5248E+01  0.3274E+02
   5.500  0.5295E+01  0.3279E+02
   5.510  0.5369E+01  0.3285E+02
   5.520  0.5484E+01  0.3290E+02
   5.530  0.5568E+01  0.3296E+02
   5.540  0.5756E+01  0.3301E+02
   5.550  0.5611E+01  0.3307E+02
   5.560  0.5255E+01  0.3313E+02
   5.570  0.5282E+01  0.3318E+02
   5.580  0.5107E+01  0.3323E+02
   5.590  0.5235E+01  0.3328E+02
   5.600  0.5547E+01  0.3334E+02
   5.610  0.5288E+01  0.3339E+02
   5.620  0.5331E+01  0.3344E+02
   5.630  0.5493E+01  0.3350E+02
   5.640  0.5329E+01  0.3355E+02
   5.650  0.5116E+01  0.3360E+02
   5.660  0.5058E+01  0.3365E+02
   5.670  0.4893E+01  0.3370E+02
   5.680  0.5981E+01  0.3376E+02
   5.690  0.6796E+01  0.3383E+02
   5.700  0.8676E+01  0.3390E+02
   5.710  0.1217E+02  0.3400E+02
   5.720  0.1316E+02  0.3413E+02
   5.730  0.1207E+02  0.3426E+02
   5.740  0.1323E+02  0.3438E+02
   5.750  0.1142E+02  0.3450E+02
   5.760  0.7423E+01  0.3459E+02
   5.770  0.7078E+01  0.3466E+02
   5.780  0.6806E+01  0.3473E+02
   5.790  0.6567E+01  0.3480E+02
   5.800  0.6337E+01  0.3486E+02
   5.810  0.6159E+01  0.3492E+02
   5.820  0.6023E+01  0.3498E+02
   5.830  0.5828E+01  0.3504E+02
   5.840  0.5608E+01  0.3510E+02
   5.850  0.5351E+01  0.3515E+02
   5.860  0.5094E+01  0.3521E+02
   5.870  0.4798E+01  0.3526E+02
   5.880  0.4527E+01  0.3530E+02
   5.890  0.4320E+01  0.3535E+02
   5.900  0.4124E+01  0.3539E+02
   5.910  0.3958E+01  0.3543E+02
   5.920  0.3791E+01  0.3547E+02
   5.930  0.3643E+01  0.3551E+02
   5.940  0.3507E+01  0.3554E+02
   5.950  0.3392E+01  0.3558E+02
   5.960  0.3236E+01  0.3561E+02
   5.970  0.3115E+01  0.3564E+02
   5.980  0.3040E+01  0.3567E+02
   5.990  0.2888E+01  0.3570E+02
   6.000  0.2791E+01  0.3573E+02
   6.010  0.2713E+01  0.3576E+02
   6.020  0.2615E+01  0.3578E+02
   6.030  0.2475E+01  0.3581E+02
   6.040  0.2367E+01  0.3583E+02
   6.050  0.2266E+01  0.3586E+02
   6.060  0.2167E+01  0.3588E+02
   6.070  0.2236E+01  0.3590E+02
   6.080  0.2793E+01  0.3592E+02
   6.090  0.2227E+01  0.3596E+02
   6.100  0.1606E+01  0.3598E+02
   6.110  0.9060E+00  0.3599E+02
   6.120  0.4799E+00  0.3600E+02
   6.130  0.1452E+00  0.3600E+02
   6.140  0.0000E+00  0.3600E+02
   6.150  0.0000E+00  0.3600E+02
   6.160  0.0000E+00  0.3600E+02
   6.170  0.0000E+00  0.3600E+02
   6.180  0.0000E+00  0.3600E+02
   6.190  0.0000E+00  0.3600E+02
   6.200  0.0000E+00  0.3600E+02
   6.210  0.0000E+00  0.3600E+02
   6.220  0.0000E+00  0.3600E+02
   6.230  0.0000E+00  0.3600E+02
   6.240  0.0000E+00  0.3600E+02
   6.250  0.0000E+00  0.3600E+02
   6.260  0.0000E+00  0.3600E+02
   6.270  0.0000E+00  0.3600E+02
   6.280  0.0000E+00  0.3600E+02
   6.290  0.0000E+00  0.3600E+02
   6.300  0.0000E+00  0.3600E+02
   6.310  0.0000E+00  0.3600E+02
   6.320  0.0000E+00  0.3600E+02
   6.330  0.0000E+00  0.3600E+02
   6.340  0.0000E+00  0.3600E+02
   6.350  0.0000E+00  0.3600E+02
   6.360  0.0000E+00  0.3600E+02
   6.370  0.0000E+00  0.3600E+02
   6.380  0.0000E+00  0.3600E+02
   6.390  0.0000E+00  0.3600E+02
   6.400  0.0000E+00  0.3600E+02
   6.410  0.0000E+00  0.3600E+02
   6.420  0.0000E+00  0.3600E+02
   6.430  0.0000E+00  0.3600E+02
   6.440  0.0000E+00  0.3600E+02
   6.450  0.0000E+00  0.3600E+02
   6.460  0.0000E+00  0.3600E+02
   6.470  0.0000E+00  0.3600E+02
   6.480  0.0000E+00  0.3600E+02
   6.490  0.0000E+00  0.3600E+02
   6.500  0.0000E+00  0.3600E+02
   6.510  0.0000E+00  0.3600E+02
   6.520  0.0000E+00  0.3600E+02
   6.530  0.0000E+00  0.3600E+02
   6.540  0.0000E+00  0.3600E+02
   6.550  0.0000E+00  0.3600E+02
   6.560  0.0000E+00  0.3600E+02
   6.570  0.0000E+00  0.3600E+02
   6.580  0.0000E+00  0.3600E+02
   6.590  0.0000E+00  0.3600E+02
   6.600  0.0000E+00  0.3600E+02
   6.610  0.0000E+00  0.3600E+02
   6.620  0.0000E+00  0.3600E+02
   6.630  0.0000E+00  0.3600E+02
   6.640  0.0000E+00  0.3600E+02
   6.650  0.0000E+00  0.3600E+02
   6.660  0.0000E+00  0.3600E+02
   6.670  0.0000E+00  0.3600E+02
   6.680  0.0000E+00  0.3600E+02
   6.690  0.0000E+00  0.3600E+02
   6.700  0.0000E+00  0.3600E+02
   6.710  0.0000E+00  0.3600E+02
   6.720  0.0000E+00  0.3600E+02
   6.730  0.0000E+00  0.3600E+02
   6.740  0.0000E+00  0.3600E+02
   6.750  0.0000E+00  0.3600E+02
   6.760  0.0000E+00  0.3600E+02
   6.770  0.0000E+00  0.3600E+02
   6.780  0.0000E+00  0.3600E+02
   6.790  0.0000E+00  0.3600E+02
   6.800  0.0000E+00  0.3600E+02
   6.810  0.0000E+00  0.3600E+02
   6.820  0.0000E+00  0.3600E+02
   6.830  0.0000E+00  0.3600E+02
   6.840  0.0000E+00  0.3600E+02
   6.850  0.0000E+00  0.3600E+02
   6.860  0.0000E+00  0.3600E+02
   6.870  0.0000E+00  0.3600E+02
   6.880  0.0000E+00  0.3600E+02
   6.890  0.0000E+00  0.3600E+02
   6.900  0.0000E+00  0.3600E+02
   6.910  0.0000E+00  0.3600E+02
   6.920  0.0000E+00  0.3600E+02
   6.930  0.0000E+00  0.3600E+02
   6.940  0.0000E+00  0.3600E+02
   6.950  0.0000E+00  0.3600E+02
   6.960  0.0000E+00  0.3600E+02
   6.970  0.0000E+00  0.3600E+02
   6.980  0.0000E+00  0.3600E+02
   6.990  0.0000E+00  0.3600E+02
   7.000  0.0000E+00  0.3600E+02
   7.010  0.0000E+00  0.3600E+02
   7.020  0.0000E+00  0.3600E+02
   7.030  0.0000E+00  0.3600E+02
   7.040  0.0000E+00  0.3600E+02
   7.050  0.0000E+00  0.3600E+02
   7.060  0.0000E+00  0.3600E+02
   7.070  0.0000E+00  0.3600E+02
   7.080  0.0000E+00  0.3600E+02
   7.090  0.0000E+00  0.3600E+02
   7.100  0.0000E+00  0.3600E+02
   7.110  0.0000E+00  0.3600E+02
   7.120  0.0000E+00  0.3600E+02
   7.130  0.0000E+00  0.3600E+02
   7.140  0.0000E+00  0.3600E+02
   7.150  0.0000E+00  0.3600E+02
   7.160  0.0000E+00  0.3600E+02
   7.170  0.0000E+00  0.3600E+02
   7.180  0.0000E+00  0.3600E+02
   7.190  0.0000E+00  0.3600E+02
   7.200  0.0000E+00  0.3600E+02
   7.210  0.0000E+00  0.3600E+02
   7.220  0.0000E+00  0.3600E+02
   7.230  0.0000E+00  0.3600E+02
   7.240  0.0000E+00  0.3600E+02
   7.250  0.0000E+00  0.3600E+02
   7.260  0.0000E+00  0.3600E+02
   7.270  0.0000E+00  0.3600E+02
   7.280  0.0000E+00  0.3600E+02
   7.290  0.0000E+00  0.3600E+02
   7.300  0.0000E+00  0.3600E+02
   7.310  0.0000E+00  0.3600E+02
   7.320  0.0000E+00  0.3600E+02
   7.330  0.0000E+00  0.3600E+02
   7.340  0.0000E+00  0.3600E+02
   7.350  0.0000E+00  0.3600E+02
   7.360  0.0000E+00  0.3600E+02
   7.370  0.0000E+00  0.3600E+02
   7.380  0.4013E-03  0.3600E+02
   7.390  0.2551E-02  0.3600E+02
   7.400  0.4146E-02  0.3600E+02
   7.410  0.5969E-02  0.3600E+02
   7.420  0.8169E-02  0.3600E+02
   7.430  0.1022E-01  0.3600E+02
   7.440  0.1198E-01  0.3600E+02
   7.450  0.1388E-01  0.3600E+02
   7.460  0.1591E-01  0.3600E+02
   7.470  0.1808E-01  0.3600E+02
   7.480  0.2024E-01  0.3600E+02
   7.490  0.2230E-01  0.3600E+02
   7.500  0.2679E-01  0.3600E+02
   7.510  0.4821E-01  0.3600E+02
   7.520  0.6532E-01  0.3600E+02
   7.530  0.8475E-01  0.3600E+02
   7.540  0.1080E+00  0.3600E+02
   7.550  0.1286E+00  0.3601E+02
   7.560  0.1474E+00  0.3601E+02
   7.570  0.1674E+00  0.3601E+02
   7.580  0.1887E+00  0.3601E+02
   7.590  0.2111E+00  0.3601E+02
   7.600  0.2327E+00  0.3601E+02
   7.610  0.2535E+00  0.3602E+02
   7.620  0.2738E+00  0.3602E+02
   7.630  0.2947E+00  0.3602E+02
   7.640  0.3165E+00  0.3603E+02
   7.650  0.3391E+00  0.3603E+02
   7.660  0.3619E+00  0.3603E+02
   7.670  0.3846E+00  0.3604E+02
   7.680  0.4069E+00  0.3604E+02
   7.690  0.4291E+00  0.3604E+02
   7.700  0.4515E+00  0.3605E+02
   7.710  0.4995E+00  0.3605E+02
   7.720  0.6547E+00  0.3606E+02
   7.730  0.6631E+00  0.3607E+02
   7.740  0.6963E+00  0.3607E+02
   7.750  0.7625E+00  0.3608E+02
   7.760  0.6930E+00  0.3609E+02
   7.770  0.7044E+00  0.3609E+02
   7.780  0.7258E+00  0.3610E+02
   7.790  0.7294E+00  0.3611E+02
   7.800  0.7533E+00  0.3612E+02
   7.810  0.7386E+00  0.3612E+02
   7.820  0.7370E+00  0.3613E+02
   7.830  0.7515E+00  0.3614E+02
   7.840  0.7636E+00  0.3615E+02
   7.850  0.7643E+00  0.3615E+02
   7.860  0.7752E+00  0.3616E+02
   7.870  0.7909E+00  0.3617E+02
   7.880  0.7897E+00  0.3618E+02
   7.890  0.7915E+00  0.3618E+02
   7.900  0.8010E+00  0.3619E+02
   7.910  0.8077E+00  0.3620E+02
   7.920  0.8138E+00  0.3621E+02
   7.930  0.8198E+00  0.3622E+02
   7.940  0.8300E+00  0.3623E+02
   7.950  0.8445E+00  0.3623E+02
   7.960  0.8587E+00  0.3624E+02
   7.970  0.8835E+00  0.3625E+02
   7.980  0.9051E+00  0.3626E+02
   7.990  0.9448E+00  0.3627E+02
   8.000  0.9851E+00  0.3628E+02
   8.010  0.1023E+01  0.3629E+02
   8.020  0.1077E+01  0.3630E+02
   8.030  0.1176E+01  0.3631E+02
   8.040  0.1236E+01  0.3632E+02
   8.050  0.1403E+01  0.3634E+02
   8.060  0.1391E+01  0.3635E+02
   8.070  0.1429E+01  0.3636E+02
   8.080  0.1430E+01  0.3638E+02
   8.090  0.1455E+01  0.3639E+02
   8.100  0.1450E+01  0.3641E+02
   8.110  0.1466E+01  0.3642E+02
   8.120  0.1488E+01  0.3644E+02
   8.130  0.1507E+01  0.3645E+02
   8.140  0.1529E+01  0.3647E+02
   8.150  0.1533E+01  0.3648E+02
   8.160  0.1564E+01  0.3650E+02
   8.170  0.1602E+01  0.3651E+02
   8.180  0.1634E+01  0.3653E+02
   8.190  0.1669E+01  0.3655E+02
   8.200  0.1706E+01  0.3656E+02
   8.210  0.1924E+01  0.3658E+02
   8.220  0.2207E+01  0.3660E+02
   8.230  0.2516E+01  0.3663E+02
   8.240  0.2655E+01  0.3665E+02
   8.250  0.2678E+01  0.3668E+02
   8.260  0.2713E+01  0.3670E+02
   8.270  0.3053E+01  0.3673E+02
   8.280  0.3194E+01  0.3677E+02
   8.290  0.3310E+01  0.3680E+02
   8.300  0.3151E+01  0.3683E+02
   8.310  0.3067E+01  0.3686E+02
   8.320  0.2980E+01  0.3689E+02
   8.330  0.3009E+01  0.3692E+02
   8.340  0.2996E+01  0.3695E+02
   8.350  0.3115E+01  0.3698E+02
   8.360  0.3143E+01  0.3702E+02
   8.370  0.3001E+01  0.3705E+02
   8.380  0.2949E+01  0.3708E+02
   8.390  0.2879E+01  0.3710E+02
   8.400  0.2852E+01  0.3713E+02
   8.410  0.2819E+01  0.3716E+02
   8.420  0.2761E+01  0.3719E+02
   8.430  0.2716E+01  0.3722E+02
   8.440  0.2685E+01  0.3724E+02
   8.450  0.2662E+01  0.3727E+02
   8.460  0.2637E+01  0.3730E+02
   8.470  0.2625E+01  0.3732E+02
   8.480  0.2606E+01  0.3735E+02
   8.490  0.2580E+01  0.3738E+02
   8.500  0.2556E+01  0.3740E+02
   8.510  0.2542E+01  0.3743E+02
   8.520  0.2514E+01  0.3745E+02
   8.530  0.2482E+01  0.3748E+02
   8.540  0.2450E+01  0.3750E+02
   8.550  0.2412E+01  0.3753E+02
   8.560  0.2370E+01  0.3755E+02
   8.570  0.2325E+01  0.3757E+02
   8.580  0.2259E+01  0.3760E+02
   8.590  0.2206E+01  0.3762E+02
   8.600  0.2163E+01  0.3764E+02
   8.610  0.2125E+01  0.3766E+02
   8.620  0.2091E+01  0.3768E+02
   8.630  0.2057E+01  0.3770E+02
   8.640  0.2028E+01  0.3772E+02
   8.650  0.2001E+01  0.3774E+02
   8.660  0.1973E+01  0.3776E+02
   8.670  0.1945E+01  0.3778E+02
   8.680  0.1918E+01  0.3780E+02
   8.690  0.1898E+01  0.3782E+02
   8.700  0.1881E+01  0.3784E+02
   8.710  0.1867E+01  0.3786E+02
   8.720  0.1853E+01  0.3788E+02
   8.730  0.1843E+01  0.3790E+02
   8.740  0.1831E+01  0.3792E+02
   8.750  0.1817E+01  0.3793E+02
   8.760  0.1804E+01  0.3795E+02
   8.770  0.1791E+01  0.3797E+02
   8.780  0.1778E+01  0.3799E+02
   8.790  0.1756E+01  0.3800E+02
   8.800  0.1746E+01  0.3802E+02
   8.810  0.1735E+01  0.3804E+02
   8.820  0.1724E+01  0.3806E+02
   8.830  0.1712E+01  0.3807E+02
   8.840  0.1702E+01  0.3809E+02
   8.850  0.1694E+01  0.3811E+02
   8.860  0.1688E+01  0.3813E+02
   8.870  0.1680E+01  0.3814E+02
   8.880  0.1673E+01  0.3816E+02
   8.890  0.1668E+01  0.3818E+02
   8.900  0.1663E+01  0.3819E+02
   8.910  0.1660E+01  0.3821E+02
   8.920  0.1657E+01  0.3823E+02
   8.930  0.1652E+01  0.3824E+02
   8.940  0.1648E+01  0.3826E+02
   8.950  0.1646E+01  0.3827E+02
   8.960  0.1640E+01  0.3829E+02
   8.970  0.1632E+01  0.3831E+02
   8.980  0.1626E+01  0.3832E+02
   8.990  0.1623E+01  0.3834E+02
   9.000  0.1623E+01  0.3836E+02
   9.010  0.1625E+01  0.3837E+02
   9.020  0.1691E+01  0.3839E+02
   9.030  0.1731E+01  0.3841E+02
   9.040  0.1786E+01  0.3842E+02
   9.050  0.1745E+01  0.3844E+02
   9.060  0.1766E+01  0.3846E+02
   9.070  0.1790E+01  0.3848E+02
   9.080  0.1797E+01  0.3849E+02
   9.090  0.1815E+01  0.3851E+02
   9.100  0.1863E+01  0.3853E+02
   9.110  0.1899E+01  0.3855E+02
   9.120  0.1903E+01  0.3857E+02
   9.130  0.1910E+01  0.3859E+02
   9.140  0.1916E+01  0.3861E+02
   9.150  0.1926E+01  0.3863E+02
   9.160  0.1936E+01  0.3865E+02
   9.170  0.1931E+01  0.3867E+02
   9.180  0.1931E+01  0.3868E+02
   9.190  0.1948E+01  0.3870E+02
   9.200  0.1955E+01  0.3872E+02
   9.210  0.1959E+01  0.3874E+02
   9.220  0.2045E+01  0.3876E+02
   9.230  0.1974E+01  0.3878E+02
   9.240  0.1943E+01  0.3880E+02
   9.250  0.1819E+01  0.3882E+02
   9.260  0.1805E+01  0.3884E+02
   9.270  0.1761E+01  0.3886E+02
   9.280  0.1723E+01  0.3888E+02
   9.290  0.1691E+01  0.3889E+02
   9.300  0.1664E+01  0.3891E+02
   9.310  0.1670E+01  0.3893E+02
   9.320  0.1619E+01  0.3894E+02
   9.330  0.1596E+01  0.3896E+02
   9.340  0.1581E+01  0.3897E+02
   9.350  0.1565E+01  0.3899E+02
   9.360  0.1562E+01  0.3901E+02
   9.370  0.1558E+01  0.3902E+02
   9.380  0.1542E+01  0.3904E+02
   9.390  0.1533E+01  0.3905E+02
   9.400  0.1526E+01  0.3907E+02
   9.410  0.1521E+01  0.3908E+02
   9.420  0.1521E+01  0.3910E+02
   9.430  0.1518E+01  0.3911E+02
   9.440  0.1518E+01  0.3913E+02
   9.450  0.1533E+01  0.3914E+02
   9.460  0.1530E+01  0.3916E+02
   9.470  0.1517E+01  0.3917E+02
   9.480  0.1505E+01  0.3919E+02
   9.490  0.1507E+01  0.3920E+02
   9.500  0.1511E+01  0.3922E+02
   9.510  0.1518E+01  0.3923E+02
   9.520  0.1527E+01  0.3925E+02
   9.530  0.1535E+01  0.3926E+02
   9.540  0.1540E+01  0.3928E+02
   9.550  0.1552E+01  0.3930E+02
   9.560  0.1567E+01  0.3931E+02
   9.570  0.1579E+01  0.3933E+02
   9.580  0.1605E+01  0.3934E+02
   9.590  0.1627E+01  0.3936E+02
   9.600  0.1646E+01  0.3938E+02
   9.610  0.1672E+01  0.3939E+02
   9.620  0.1708E+01  0.3941E+02
   9.630  0.1778E+01  0.3943E+02
   9.640  0.1837E+01  0.3944E+02
   9.650  0.2162E+01  0.3946E+02
   9.660  0.1985E+01  0.3948E+02
   9.670  0.1879E+01  0.3950E+02
   9.680  0.1851E+01  0.3952E+02
   9.690  0.1781E+01  0.3954E+02
   9.700  0.1753E+01  0.3956E+02
   9.710  0.1713E+01  0.3957E+02
   9.720  0.1694E+01  0.3959E+02
   9.730  0.1628E+01  0.3961E+02
   9.740  0.1561E+01  0.3962E+02
   9.750  0.1529E+01  0.3964E+02
   9.760  0.1507E+01  0.3965E+02
   9.770  0.1440E+01  0.3967E+02
   9.780  0.1381E+01  0.3968E+02
   9.790  0.1295E+01  0.3970E+02
   9.800  0.1273E+01  0.3971E+02
   9.810  0.1261E+01  0.3972E+02
   9.820  0.1251E+01  0.3974E+02
   9.830  0.1220E+01  0.3975E+02
   9.840  0.1210E+01  0.3976E+02
   9.850  0.1215E+01  0.3977E+02
   9.860  0.1202E+01  0.3978E+02
   9.870  0.1208E+01  0.3980E+02
   9.880  0.1200E+01  0.3981E+02
   9.890  0.1182E+01  0.3982E+02
   9.900  0.1163E+01  0.3983E+02
   9.910  0.1163E+01  0.3984E+02
   9.920  0.1201E+01  0.3986E+02
   9.930  0.1212E+01  0.3987E+02
   9.940  0.1181E+01  0.3988E+02
   9.950  0.1159E+01  0.3989E+02
   9.960  0.1131E+01  0.3990E+02
   9.970  0.1114E+01  0.3991E+02
   9.980  0.1090E+01  0.3992E+02
   9.990  0.1026E+01  0.3994E+02
  10.000  0.1087E+01  0.3995E+02
  10.010  0.1166E+01  0.3996E+02
  10.020  0.1242E+01  0.3997E+02
  10.030  0.1392E+01  0.3998E+02
  10.040  0.1528E+01  0.4000E+02
  10.050  0.1661E+01  0.4001E+02
  10.060  0.1667E+01  0.4003E+02
  10.070  0.1743E+01  0.4005E+02
  10.080  0.1860E+01  0.4006E+02
  10.090  0.2022E+01  0.4008E+02
  10.100  0.2312E+01  0.4011E+02
  10.110  0.2625E+01  0.4013E+02
  10.120  0.3113E+01  0.4016E+02
  10.130  0.3091E+01  0.4019E+02
  10.140  0.3099E+01  0.4022E+02
  10.150  0.3148E+01  0.4025E+02
  10.160  0.3305E+01  0.4028E+02
  10.170  0.3495E+01  0.4032E+02
  10.180  0.3785E+01  0.4035E+02
  10.190  0.4041E+01  0.4039E+02
  10.200  0.4410E+01  0.4044E+02
  10.210  0.4602E+01  0.4048E+02
  10.220  0.4537E+01  0.4053E+02
  10.230  0.4840E+01  0.4058E+02
  10.240  0.4901E+01  0.4063E+02
  10.250  0.4920E+01  0.4068E+02
  10.260  0.5087E+01  0.4072E+02
  10.270  0.4883E+01  0.4077E+02
  10.280  0.4505E+01  0.4082E+02
  10.290  0.4136E+01  0.4086E+02
  10.300  0.4252E+01  0.4091E+02
  10.310  0.4153E+01  0.4095E+02
  10.320  0.3926E+01  0.4099E+02
  10.330  0.3887E+01  0.4103E+02
  10.340  0.3876E+01  0.4107E+02
  10.350  0.3888E+01  0.4110E+02
  10.360  0.3899E+01  0.4114E+02
  10.370  0.3907E+01  0.4118E+02
  10.380  0.3887E+01  0.4122E+02
  10.390  0.3880E+01  0.4126E+02
  10.400  0.3879E+01  0.4130E+02
  10.410  0.3893E+01  0.4134E+02
  10.420  0.3961E+01  0.4138E+02
  10.430  0.3958E+01  0.4142E+02
  10.440  0.4007E+01  0.4146E+02
  10.450  0.4078E+01  0.4150E+02
  10.460  0.4176E+01  0.4154E+02
  10.470  0.4214E+01  0.4158E+02
  10.480  0.4254E+01  0.4162E+02
  10.490  0.4337E+01  0.4167E+02
  10.500  0.4433E+01  0.4171E+02
  10.510  0.4512E+01  0.4175E+02
  10.520  0.4628E+01  0.4180E+02
  10.530  0.4753E+01  0.4185E+02
  10.540  0.4845E+01  0.4190E+02
  10.550  0.4961E+01  0.4194E+02
  10.560  0.5072E+01  0.4199E+02
  10.570  0.5231E+01  0.4205E+02
  10.580  0.5545E+01  0.4210E+02
  10.590  0.6005E+01  0.4216E+02
  10.600  0.6236E+01  0.4222E+02
  10.610  0.6064E+01  0.4228E+02
  10.620  0.6281E+01  0.4234E+02
  10.630  0.6126E+01  0.4240E+02
  10.640  0.5943E+01  0.4246E+02
  10.650  0.5667E+01  0.4252E+02
  10.660  0.5268E+01  0.4258E+02
  10.670  0.5107E+01  0.4263E+02
  10.680  0.4982E+01  0.4268E+02
  10.690  0.4566E+01  0.4273E+02
  10.700  0.4249E+01  0.4277E+02
  10.710  0.4114E+01  0.4281E+02
  10.720  0.3977E+01  0.4285E+02
  10.730  0.4131E+01  0.4289E+02
  10.740  0.4090E+01  0.4293E+02
  10.750  0.4147E+01  0.4298E+02
  10.760  0.4551E+01  0.4302E+02
  10.770  0.4026E+01  0.4306E+02
  10.780  0.3416E+01  0.4310E+02
  10.790  0.2509E+01  0.4313E+02
  10.800  0.2081E+01  0.4315E+02
  10.810  0.2044E+01  0.4317E+02
  10.820  0.2027E+01  0.4319E+02
  10.830  0.2057E+01  0.4321E+02
  10.840  0.2923E+01  0.4324E+02
  10.850  0.2773E+01  0.4327E+02
  10.860  0.2657E+01  0.4330E+02
  10.870  0.2667E+01  0.4332E+02
  10.880  0.2873E+01  0.4335E+02
  10.890  0.3023E+01  0.4338E+02
  10.900  0.3248E+01  0.4341E+02
  10.910  0.3640E+01  0.4345E+02
  10.920  0.5445E+01  0.4349E+02
  10.930  0.5133E+01  0.4354E+02
  10.940  0.4959E+01  0.4359E+02
  10.950  0.4603E+01  0.4364E+02
  10.960  0.4321E+01  0.4369E+02
  10.970  0.4489E+01  0.4373E+02
  10.980  0.4727E+01  0.4378E+02
  10.990  0.4923E+01  0.4383E+02
  11.000  0.4619E+01  0.4387E+02
  11.010  0.4468E+01  0.4392E+02
  11.020  0.4523E+01  0.4396E+02
  11.030  0.4505E+01  0.4401E+02
  11.040  0.4582E+01  0.4405E+02
  11.050  0.4715E+01  0.4410E+02
  11.060  0.4658E+01  0.4415E+02
  11.070  0.4642E+01  0.4419E+02
  11.080  0.4684E+01  0.4424E+02
  11.090  0.4791E+01  0.4429E+02
  11.100  0.4814E+01  0.4434E+02
  11.110  0.4915E+01  0.4439E+02
  11.120  0.5646E+01  0.4444E+02
  11.130  0.5966E+01  0.4450E+02
  11.140  0.5988E+01  0.4456E+02
  11.150  0.5933E+01  0.4462E+02
  11.160  0.5951E+01  0.4468E+02
  11.170  0.5668E+01  0.4473E+02
  11.180  0.5397E+01  0.4479E+02
  11.190  0.5156E+01  0.4484E+02
  11.200  0.4949E+01  0.4489E+02
  11.210  0.4775E+01  0.4494E+02
  11.220  0.4626E+01  0.4499E+02
  11.230  0.4535E+01  0.4503E+02
  11.240  0.4476E+01  0.4508E+02
  11.250  0.4786E+01  0.4513E+02
  11.260  0.4935E+01  0.4517E+02
  11.270  0.5094E+01  0.4522E+02
  11.280  0.5443E+01  0.4528E+02
  11.290  0.6189E+01  0.4534E+02
  11.300  0.5438E+01  0.4539E+02
  11.310  0.5244E+01  0.4544E+02
  11.320  0.5077E+01  0.4550E+02
  11.330  0.4972E+01  0.4555E+02
  11.340  0.4881E+01  0.4560E+02
  11.350  0.4806E+01  0.4564E+02
  11.360  0.4740E+01  0.4569E+02
  11.370  0.4683E+01  0.4574E+02
  11.380  0.4606E+01  0.4579E+02
  11.390  0.4534E+01  0.4583E+02
  11.400  0.4461E+01  0.4588E+02
  11.410  0.4390E+01  0.4592E+02
  11.420  0.4346E+01  0.4596E+02
  11.430  0.4301E+01  0.4601E+02
  11.440  0.4240E+01  0.4605E+02
  11.450  0.4164E+01  0.4609E+02
  11.460  0.4096E+01  0.4613E+02
  11.470  0.4006E+01  0.4617E+02
  11.480  0.3948E+01  0.4621E+02
  11.490  0.3891E+01  0.4625E+02
  11.500  0.3797E+01  0.4629E+02
  11.510  0.3718E+01  0.4633E+02
  11.520  0.3617E+01  0.4637E+02
  11.530  0.3511E+01  0.4640E+02
  11.540  0.3405E+01  0.4644E+02
  11.550  0.3328E+01  0.4647E+02
  11.560  0.3258E+01  0.4650E+02
  11.570  0.3156E+01  0.4653E+02
  11.580  0.3071E+01  0.4657E+02
  11.590  0.2991E+01  0.4660E+02
  11.600  0.2932E+01  0.4663E+02
  11.610  0.2874E+01  0.4665E+02
  11.620  0.2811E+01  0.4668E+02
  11.630  0.2814E+01  0.4671E+02
  11.640  0.2772E+01  0.4674E+02
  11.650  0.2732E+01  0.4677E+02
  11.660  0.2690E+01  0.4679E+02
  11.670  0.2673E+01  0.4682E+02
  11.680  0.2659E+01  0.4685E+02
  11.690  0.2644E+01  0.4687E+02
  11.700  0.2646E+01  0.4690E+02
  11.710  0.2651E+01  0.4693E+02
  11.720  0.2618E+01  0.4695E+02
  11.730  0.2613E+01  0.4698E+02
  11.740  0.2631E+01  0.4701E+02
  11.750  0.2652E+01  0.4703E+02
  11.760  0.2678E+01  0.4706E+02
  11.770  0.2748E+01  0.4709E+02
  11.780  0.2794E+01  0.4711E+02
  11.790  0.2836E+01  0.4714E+02
  11.800  0.2875E+01  0.4717E+02
  11.810  0.2936E+01  0.4720E+02
  11.820  0.2976E+01  0.4723E+02
  11.830  0.3043E+01  0.4726E+02
  11.840  0.3130E+01  0.4729E+02
  11.850  0.3196E+01  0.4732E+02
  11.860  0.3240E+01  0.4735E+02
  11.870  0.3356E+01  0.4739E+02
  11.880  0.3425E+01  0.4742E+02
  11.890  0.3513E+01  0.4746E+02
  11.900  0.3569E+01  0.4749E+02
  11.910  0.3624E+01  0.4753E+02
  11.920  0.3729E+01  0.4756E+02
  11.930  0.3823E+01  0.4760E+02
  11.940  0.3990E+01  0.4764E+02
  11.950  0.4174E+01  0.4768E+02
  11.960  0.4549E+01  0.4772E+02
  11.970  0.5083E+01  0.4777E+02
  11.980  0.6020E+01  0.4783E+02
  11.990  0.5525E+01  0.4790E+02
  12.000  0.3819E+01  0.4794E+02
  12.010  0.3494E+01  0.4798E+02
  12.020  0.3312E+01  0.4801E+02
  12.030  0.3225E+01  0.4804E+02
  12.040  0.3145E+01  0.4807E+02
  12.050  0.3086E+01  0.4811E+02
  12.060  0.3001E+01  0.4814E+02
  12.070  0.2916E+01  0.4817E+02
  12.080  0.2868E+01  0.4819E+02
  12.090  0.2840E+01  0.4822E+02
  12.100  0.2851E+01  0.4825E+02
  12.110  0.2907E+01  0.4828E+02
  12.120  0.2799E+01  0.4831E+02
  12.130  0.2691E+01  0.4834E+02
  12.140  0.2624E+01  0.4836E+02
  12.150  0.2451E+01  0.4839E+02
  12.160  0.2429E+01  0.4841E+02
  12.170  0.2442E+01  0.4844E+02
  12.180  0.2444E+01  0.4846E+02
  12.190  0.2454E+01  0.4849E+02
  12.200  0.2459E+01  0.4851E+02
  12.210  0.2445E+01  0.4853E+02
  12.220  0.2438E+01  0.4856E+02
  12.230  0.2453E+01  0.4858E+02
  12.240  0.2482E+01  0.4861E+02
  12.250  0.2502E+01  0.4863E+02
  12.260  0.2577E+01  0.4866E+02
  12.270  0.2652E+01  0.4868E+02
  12.280  0.2488E+01  0.4871E+02
  12.290  0.2316E+01  0.4873E+02
  12.300  0.2255E+01  0.4876E+02
  12.310  0.2228E+01  0.4878E+02
  12.320  0.2206E+01  0.4880E+02
  12.330  0.2206E+01  0.4882E+02
  12.340  0.2185E+01  0.4885E+02
  12.350  0.2146E+01  0.4887E+02
  12.360  0.2087E+01  0.4889E+02
  12.370  0.2052E+01  0.4891E+02
  12.380  0.2009E+01  0.4893E+02
  12.390  0.1979E+01  0.4895E+02
  12.400  0.1910E+01  0.4897E+02
  12.410  0.1836E+01  0.4899E+02
  12.420  0.1723E+01  0.4901E+02
  12.430  0.1613E+01  0.4902E+02
  12.440  0.1611E+01  0.4904E+02
  12.450  0.1638E+01  0.4905E+02
  12.460  0.1653E+01  0.4907E+02
  12.470  0.1656E+01  0.4909E+02
  12.480  0.1647E+01  0.4910E+02
  12.490  0.1646E+01  0.4912E+02
  12.500  0.1775E+01  0.4914E+02
  12.510  0.1646E+01  0.4915E+02
  12.520  0.1658E+01  0.4917E+02
  12.530  0.1671E+01  0.4919E+02
  12.540  0.1689E+01  0.4920E+02
  12.550  0.1743E+01  0.4922E+02
  12.560  0.1770E+01  0.4924E+02
  12.570  0.1971E+01  0.4926E+02
  12.580  0.2377E+01  0.4928E+02
  12.590  0.2058E+01  0.4930E+02
  12.600  0.1695E+01  0.4932E+02
  12.610  0.1459E+01  0.4934E+02
  12.620  0.1308E+01  0.4935E+02
  12.630  0.1229E+01  0.4936E+02
  12.640  0.1046E+01  0.4938E+02
  12.650  0.9752E+00  0.4939E+02
  12.660  0.1064E+01  0.4940E+02
  12.670  0.1120E+01  0.4941E+02
  12.680  0.1213E+01  0.4942E+02
  12.690  0.1212E+01  0.4943E+02
  12.700  0.1215E+01  0.4944E+02
  12.710  0.1177E+01  0.4945E+02
  12.720  0.1267E+01  0.4947E+02
  12.730  0.1382E+01  0.4948E+02
  12.740  0.1513E+01  0.4949E+02
  12.750  0.1647E+01  0.4951E+02
  12.760  0.1777E+01  0.4953E+02
  12.770  0.1915E+01  0.4955E+02
  12.780  0.1970E+01  0.4957E+02
  12.790  0.1687E+01  0.4958E+02
  12.800  0.1543E+01  0.4960E+02
  12.810  0.1346E+01  0.4962E+02
  12.820  0.1090E+01  0.4963E+02
  12.830  0.9678E+00  0.4964E+02
  12.840  0.8534E+00  0.4965E+02
  12.850  0.7563E+00  0.4965E+02
  12.860  0.7779E+00  0.4966E+02
  12.870  0.8381E+00  0.4967E+02
  12.880  0.8588E+00  0.4968E+02
  12.890  0.8984E+00  0.4969E+02
  12.900  0.9528E+00  0.4970E+02
  12.910  0.1037E+01  0.4971E+02
  12.920  0.1145E+01  0.4972E+02
  12.930  0.1223E+01  0.4973E+02
  12.940  0.1307E+01  0.4974E+02
  12.950  0.1395E+01  0.4976E+02
  12.960  0.1480E+01  0.4977E+02
  12.970  0.1880E+01  0.4979E+02
  12.980  0.2043E+01  0.4981E+02
  12.990  0.1625E+01  0.4983E+02
  13.000  0.1311E+01  0.4984E+02
  13.010  0.1034E+01  0.4985E+02
  13.020  0.9421E+00  0.4986E+02
  13.030  0.9087E+00  0.4987E+02
  13.040  0.8827E+00  0.4988E+02
  13.050  0.9274E+00  0.4989E+02
  13.060  0.8827E+00  0.4990E+02
  13.070  0.8668E+00  0.4991E+02
  13.080  0.8601E+00  0.4992E+02
  13.090  0.8914E+00  0.4992E+02
  13.100  0.8557E+00  0.4993E+02
  13.110  0.8742E+00  0.4994E+02
  13.120  0.6775E+00  0.4995E+02
  13.130  0.6166E+00  0.4996E+02
  13.140  0.5609E+00  0.4996E+02
  13.150  0.5289E+00  0.4997E+02
  13.160  0.3599E+00  0.4997E+02
  13.170  0.3011E+00  0.4998E+02
  13.180  0.3014E+00  0.4998E+02
  13.190  0.3195E+00  0.4998E+02
  13.200  0.3004E+00  0.4999E+02
  13.210  0.3120E+00  0.4999E+02
  13.220  0.3924E+00  0.4999E+02
  13.230  0.3181E+00  0.5000E+02
  13.240  0.1942E+00  0.5000E+02
  13.250  0.9785E-01  0.5000E+02
  13.260  0.0000E+00  0.5000E+02
  13.270  0.0000E+00  0.5000E+02
  13.280  0.0000E+00  0.5000E+02
  13.290  0.0000E+00  0.5000E+02
  13.300  0.0000E+00  0.5000E+02
  13.310  0.0000E+00  0.5000E+02
  13.320  0.0000E+00  0.5000E+02
  13.330  0.0000E+00  0.5000E+02
  13.340  0.0000E+00  0.5000E+02
  13.350  0.0000E+00  0.5000E+02
  13.360  0.0000E+00  0.5000E+02
  13.370  0.0000E+00  0.5000E+02
  13.380  0.0000E+00  0.5000E+02
  13.390  0.0000E+00  0.5000E+02
  13.400  0.0000E+00  0.5000E+02
  13.410  0.0000E+00  0.5000E+02
  13.420  0.0000E+00  0.5000E+02
  13.430  0.0000E+00  0.5000E+02
  13.440  0.0000E+00  0.5000E+02
  13.450  0.0000E+00  0.5000E+02
  13.460  0.0000E+00  0.5000E+02
  13.470  0.0000E+00  0.5000E+02
  13.480  0.0000E+00  0.5000E+02
  13.490  0.0000E+00  0.5000E+02
  13.500  0.0000E+00  0.5000E+02
  13.510  0.0000E+00  0.5000E+02
  13.520  0.0000E+00  0.5000E+02
  13.530  0.0000E+00  0.5000E+02
  13.540  0.0000E+00  0.5000E+02
  13.550  0.0000E+00  0.5000E+02
  13.560  0.0000E+00  0.5000E+02
  13.570  0.0000E+00  0.5000E+02
  13.580  0.0000E+00  0.5000E+02
  13.590  0.0000E+00  0.5000E+02
  13.600  0.0000E+00  0.5000E+02
  13.610  0.0000E+00  0.5000E+02
  13.620  0.0000E+00  0.5000E+02
  13.630  0.0000E+00  0.5000E+02
  13.640  0.0000E+00  0.5000E+02
  13.650  0.0000E+00  0.5000E+02
  13.660  0.0000E+00  0.5000E+02
  13.670  0.0000E+00  0.5000E+02
  13.680  0.0000E+00  0.5000E+02
  13.690  0.0000E+00  0.5000E+02
  13.700  0.0000E+00  0.5000E+02
  13.710  0.0000E+00  0.5000E+02
  13.720  0.0000E+00  0.5000E+02
  13.730  0.0000E+00  0.5000E+02
  13.740  0.0000E+00  0.5000E+02
  13.750  0.0000E+00  0.5000E+02
  13.760  0.0000E+00  0.5000E+02
  13.770  0.0000E+00  0.5000E+02
  13.780  0.0000E+00  0.5000E+02
  13.790  0.0000E+00  0.5000E+02
  13.800  0.0000E+00  0.5000E+02
  13.810  0.0000E+00  0.5000E+02
  13.820  0.0000E+00  0.5000E+02
  13.830  0.0000E+00  0.5000E+02
  13.840  0.0000E+00  0.5000E+02
  13.850  0.0000E+00  0.5000E+02
  13.860  0.0000E+00  0.5000E+02
  13.870  0.0000E+00  0.5000E+02
  13.880  0.0000E+00  0.5000E+02
  13.890  0.0000E+00  0.5000E+02
  13.900  0.0000E+00  0.5000E+02
  13.910  0.0000E+00  0.5000E+02
  13.920  0.0000E+00  0.5000E+02
  13.930  0.0000E+00  0.5000E+02
  13.940  0.0000E+00  0.5000E+02
  13.950  0.0000E+00  0.5000E+02
  13.960  0.0000E+00  0.5000E+02
  13.970  0.0000E+00  0.5000E+02
  13.980  0.0000E+00  0.5000E+02
  13.990  0.0000E+00  0.5000E+02
  14.000  0.0000E+00  0.5000E+02
  14.010  0.0000E+00  0.5000E+02
  14.020  0.0000E+00  0.5000E+02
  14.030  0.0000E+00  0.5000E+02
  14.040  0.0000E+00  0.5000E+02
  14.050  0.0000E+00  0.5000E+02
  14.060  0.0000E+00  0.5000E+02
  14.070  0.0000E+00  0.5000E+02
  14.080  0.0000E+00  0.5000E+02
  14.090  0.0000E+00  0.5000E+02
  14.100  0.0000E+00  0.5000E+02
  14.110  0.0000E+00  0.5000E+02
  14.120  0.0000E+00  0.5000E+02
  14.130  0.0000E+00  0.5000E+02
  14.140  0.0000E+00  0.5000E+02
  14.150  0.0000E+00  0.5000E+02
  14.160  0.0000E+00  0.5000E+02
  14.170  0.0000E+00  0.5000E+02
  14.180  0.0000E+00  0.5000E+02
  14.190  0.0000E+00  0.5000E+02
  14.200  0.0000E+00  0.5000E+02
  14.210  0.0000E+00  0.5000E+02
  14.220  0.0000E+00  0.5000E+02
  14.230  0.0000E+00  0.5000E+02
  14.240  0.0000E+00  0.5000E+02
  14.250  0.0000E+00  0.5000E+02
  14.260  0.0000E+00  0.5000E+02
  14.270  0.0000E+00  0.5000E+02
  14.280  0.0000E+00  0.5000E+02
  14.290  0.0000E+00  0.5000E+02
  14.300  0.0000E+00  0.5000E+02
  14.310  0.0000E+00  0.5000E+02
  14.320  0.0000E+00  0.5000E+02
  14.330  0.0000E+00  0.5000E+02
  14.340  0.0000E+00  0.5000E+02
  14.350  0.0000E+00  0.5000E+02
  14.360  0.0000E+00  0.5000E+02
  14.370  0.0000E+00  0.5000E+02
  14.380  0.0000E+00  0.5000E+02
  14.390  0.0000E+00  0.5000E+02
  14.400  0.0000E+00  0.5000E+02
  14.410  0.0000E+00  0.5000E+02
  14.420  0.0000E+00  0.5000E+02
  14.430  0.0000E+00  0.5000E+02
  14.440  0.0000E+00  0.5000E+02
  14.450  0.0000E+00  0.5000E+02
  14.460  0.0000E+00  0.5000E+02
  14.470  0.0000E+00  0.5000E+02
  14.480  0.0000E+00  0.5000E+02
  14.490  0.0000E+00  0.5000E+02
  14.500  0.0000E+00  0.5000E+02
  14.510  0.0000E+00  0.5000E+02
  14.520  0.0000E+00  0.5000E+02
  14.530  0.0000E+00  0.5000E+02
  14.540  0.0000E+00  0.5000E+02
  14.550  0.0000E+00  0.5000E+02
  14.560  0.0000E+00  0.5000E+02
  14.570  0.0000E+00  0.5000E+02
  14.580  0.0000E+00  0.5000E+02
  14.590  0.0000E+00  0.5000E+02
  14.600  0.0000E+00  0.5000E+02
  14.610  0.0000E+00  0.5000E+02
  14.620  0.0000E+00  0.5000E+02
  14.630  0.0000E+00  0.5000E+02
  14.640  0.0000E+00  0.5000E+02
  14.650  0.0000E+00  0.5000E+02
  14.660  0.0000E+00  0.5000E+02
  14.670  0.0000E+00  0.5000E+02
  14.680  0.0000E+00  0.5000E+02
  14.690  0.0000E+00  0.5000E+02
  14.700  0.0000E+00  0.5000E+02
  14.710  0.0000E+00  0.5000E+02
  14.720  0.0000E+00  0.5000E+02
  14.730  0.0000E+00  0.5000E+02
  14.740  0.0000E+00  0.5000E+02
  14.750  0.0000E+00  0.5000E+02
  14.760  0.0000E+00  0.5000E+02
  14.770  0.0000E+00  0.5000E+02
  14.780  0.0000E+00  0.5000E+02
  14.790  0.0000E+00  0.5000E+02
  14.800  0.0000E+00  0.5000E+02
  14.810  0.0000E+00  0.5000E+02
  14.820  0.0000E+00  0.5000E+02
  14.830  0.0000E+00  0.5000E+02
  14.840  0.0000E+00  0.5000E+02
  14.850  0.0000E+00  0.5000E+02
  14.860  0.0000E+00  0.5000E+02
  14.870  0.0000E+00  0.5000E+02
  14.880  0.0000E+00  0.5000E+02
  14.890  0.0000E+00  0.5000E+02
  14.900  0.0000E+00  0.5000E+02
  14.910  0.0000E+00  0.5000E+02
  14.920  0.0000E+00  0.5000E+02
  14.930  0.0000E+00  0.5000E+02
  14.940  0.0000E+00  0.5000E+02
  14.950  0.0000E+00  0.5000E+02
  14.960  0.0000E+00  0.5000E+02
  14.970  0.0000E+00  0.5000E+02
  14.980  0.0000E+00  0.5000E+02
  14.990  0.0000E+00  0.5000E+02
  15.000  0.0000E+00  0.5000E+02
