#  E (eV)   dos(E)     Int dos(E) EFermi =    3.905 eV
 -15.000  0.0000E+00  0.0000E+00
 -14.990  0.0000E+00  0.0000E+00
 -14.980  0.0000E+00  0.0000E+00
 -14.970  0.0000E+00  0.0000E+00
 -14.960  0.0000E+00  0.0000E+00
 -14.950  0.0000E+00  0.0000E+00
 -14.940  0.0000E+00  0.0000E+00
 -14.930  0.0000E+00  0.0000E+00
 -14.920  0.0000E+00  0.0000E+00
 -14.910  0.0000E+00  0.0000E+00
 -14.900  0.0000E+00  0.0000E+00
 -14.890  0.0000E+00  0.0000E+00
 -14.880  0.0000E+00  0.0000E+00
 -14.870  0.0000E+00  0.0000E+00
 -14.860  0.0000E+00  0.0000E+00
 -14.850  0.0000E+00  0.0000E+00
 -14.840  0.0000E+00  0.0000E+00
 -14.830  0.0000E+00  0.0000E+00
 -14.820  0.0000E+00  0.0000E+00
 -14.810  0.0000E+00  0.0000E+00
 -14.800  0.0000E+00  0.0000E+00
 -14.790  0.0000E+00  0.0000E+00
 -14.780  0.0000E+00  0.0000E+00
 -14.770  0.0000E+00  0.0000E+00
 -14.760  0.0000E+00  0.0000E+00
 -14.750  0.0000E+00  0.0000E+00
 -14.740  0.0000E+00  0.0000E+00
 -14.730  0.0000E+00  0.0000E+00
 -14.720  0.0000E+00  0.0000E+00
 -14.710  0.0000E+00  0.0000E+00
 -14.700  0.0000E+00  0.0000E+00
 -14.690  0.0000E+00  0.0000E+00
 -14.680  0.0000E+00  0.0000E+00
 -14.670  0.0000E+00  0.0000E+00
 -14.660  0.0000E+00  0.0000E+00
 -14.650  0.0000E+00  0.0000E+00
 -14.640  0.0000E+00  0.0000E+00
 -14.630  0.0000E+00  0.0000E+00
 -14.620  0.0000E+00  0.0000E+00
 -14.610  0.0000E+00  0.0000E+00
 -14.600  0.0000E+00  0.0000E+00
 -14.590  0.0000E+00  0.0000E+00
 -14.580  0.0000E+00  0.0000E+00
 -14.570  0.0000E+00  0.0000E+00
 -14.560  0.0000E+00  0.0000E+00
 -14.550  0.0000E+00  0.0000E+00
 -14.540  0.0000E+00  0.0000E+00
 -14.530  0.0000E+00  0.0000E+00
 -14.520  0.0000E+00  0.0000E+00
 -14.510  0.0000E+00  0.0000E+00
 -14.500  0.0000E+00  0.0000E+00
 -14.490  0.0000E+00  0.0000E+00
 -14.480  0.0000E+00  0.0000E+00
 -14.470  0.0000E+00  0.0000E+00
 -14.460  0.0000E+00  0.0000E+00
 -14.450  0.0000E+00  0.0000E+00
 -14.440  0.0000E+00  0.0000E+00
 -14.430  0.0000E+00  0.0000E+00
 -14.420  0.0000E+00  0.0000E+00
 -14.410  0.0000E+00  0.0000E+00
 -14.400  0.0000E+00  0.0000E+00
 -14.390  0.0000E+00  0.0000E+00
 -14.380  0.0000E+00  0.0000E+00
 -14.370  0.0000E+00  0.0000E+00
 -14.360  0.0000E+00  0.0000E+00
 -14.350  0.0000E+00  0.0000E+00
 -14.340  0.0000E+00  0.0000E+00
 -14.330  0.0000E+00  0.0000E+00
 -14.320  0.0000E+00  0.0000E+00
 -14.310  0.0000E+00  0.0000E+00
 -14.300  0.0000E+00  0.0000E+00
 -14.290  0.0000E+00  0.0000E+00
 -14.280  0.0000E+00  0.0000E+00
 -14.270  0.0000E+00  0.0000E+00
 -14.260  0.0000E+00  0.0000E+00
 -14.250  0.0000E+00  0.0000E+00
 -14.240  0.0000E+00  0.0000E+00
 -14.230  0.0000E+00  0.0000E+00
 -14.220  0.0000E+00  0.0000E+00
 -14.210  0.0000E+00  0.0000E+00
 -14.200  0.0000E+00  0.0000E+00
 -14.190  0.0000E+00  0.0000E+00
 -14.180  0.0000E+00  0.0000E+00
 -14.170  0.0000E+00  0.0000E+00
 -14.160  0.0000E+00  0.0000E+00
 -14.150  0.0000E+00  0.0000E+00
 -14.140  0.0000E+00  0.0000E+00
 -14.130  0.0000E+00  0.0000E+00
 -14.120  0.0000E+00  0.0000E+00
 -14.110  0.0000E+00  0.0000E+00
 -14.100  0.0000E+00  0.0000E+00
 -14.090  0.0000E+00  0.0000E+00
 -14.080  0.0000E+00  0.0000E+00
 -14.070  0.0000E+00  0.0000E+00
 -14.060  0.0000E+00  0.0000E+00
 -14.050  0.0000E+00  0.0000E+00
 -14.040  0.0000E+00  0.0000E+00
 -14.030  0.0000E+00  0.0000E+00
 -14.020  0.0000E+00  0.0000E+00
 -14.010  0.0000E+00  0.0000E+00
 -14.000  0.0000E+00  0.0000E+00
 -13.990  0.0000E+00  0.0000E+00
 -13.980  0.0000E+00  0.0000E+00
 -13.970  0.0000E+00  0.0000E+00
 -13.960  0.0000E+00  0.0000E+00
 -13.950  0.0000E+00  0.0000E+00
 -13.940  0.0000E+00  0.0000E+00
 -13.930  0.0000E+00  0.0000E+00
 -13.920  0.0000E+00  0.0000E+00
 -13.910  0.0000E+00  0.0000E+00
 -13.900  0.0000E+00  0.0000E+00
 -13.890  0.0000E+00  0.0000E+00
 -13.880  0.0000E+00  0.0000E+00
 -13.870  0.0000E+00  0.0000E+00
 -13.860  0.0000E+00  0.0000E+00
 -13.850  0.0000E+00  0.0000E+00
 -13.840  0.0000E+00  0.0000E+00
 -13.830  0.0000E+00  0.0000E+00
 -13.820  0.0000E+00  0.0000E+00
 -13.810  0.0000E+00  0.0000E+00
 -13.800  0.0000E+00  0.0000E+00
 -13.790  0.0000E+00  0.0000E+00
 -13.780  0.0000E+00  0.0000E+00
 -13.770  0.0000E+00  0.0000E+00
 -13.760  0.0000E+00  0.0000E+00
 -13.750  0.0000E+00  0.0000E+00
 -13.740  0.0000E+00  0.0000E+00
 -13.730  0.0000E+00  0.0000E+00
 -13.720  0.0000E+00  0.0000E+00
 -13.710  0.0000E+00  0.0000E+00
 -13.700  0.0000E+00  0.0000E+00
 -13.690  0.0000E+00  0.0000E+00
 -13.680  0.0000E+00  0.0000E+00
 -13.670  0.0000E+00  0.0000E+00
 -13.660  0.0000E+00  0.0000E+00
 -13.650  0.0000E+00  0.0000E+00
 -13.640  0.0000E+00  0.0000E+00
 -13.630  0.0000E+00  0.0000E+00
 -13.620  0.0000E+00  0.0000E+00
 -13.610  0.0000E+00  0.0000E+00
 -13.600  0.0000E+00  0.0000E+00
 -13.590  0.0000E+00  0.0000E+00
 -13.580  0.0000E+00  0.0000E+00
 -13.570  0.0000E+00  0.0000E+00
 -13.560  0.0000E+00  0.0000E+00
 -13.550  0.0000E+00  0.0000E+00
 -13.540  0.0000E+00  0.0000E+00
 -13.530  0.0000E+00  0.0000E+00
 -13.520  0.0000E+00  0.0000E+00
 -13.510  0.0000E+00  0.0000E+00
 -13.500  0.0000E+00  0.0000E+00
 -13.490  0.0000E+00  0.0000E+00
 -13.480  0.0000E+00  0.0000E+00
 -13.470  0.0000E+00  0.0000E+00
 -13.460  0.0000E+00  0.0000E+00
 -13.450  0.0000E+00  0.0000E+00
 -13.440  0.0000E+00  0.0000E+00
 -13.430  0.0000E+00  0.0000E+00
 -13.420  0.0000E+00  0.0000E+00
 -13.410  0.0000E+00  0.0000E+00
 -13.400  0.0000E+00  0.0000E+00
 -13.390  0.0000E+00  0.0000E+00
 -13.380  0.0000E+00  0.0000E+00
 -13.370  0.0000E+00  0.0000E+00
 -13.360  0.0000E+00  0.0000E+00
 -13.350  0.0000E+00  0.0000E+00
 -13.340  0.0000E+00  0.0000E+00
 -13.330  0.0000E+00  0.0000E+00
 -13.320  0.0000E+00  0.0000E+00
 -13.310  0.0000E+00  0.0000E+00
 -13.300  0.0000E+00  0.0000E+00
 -13.290  0.0000E+00  0.0000E+00
 -13.280  0.0000E+00  0.0000E+00
 -13.270  0.0000E+00  0.0000E+00
 -13.260  0.0000E+00  0.0000E+00
 -13.250  0.0000E+00  0.0000E+00
 -13.240  0.0000E+00  0.0000E+00
 -13.230  0.0000E+00  0.0000E+00
 -13.220  0.0000E+00  0.0000E+00
 -13.210  0.0000E+00  0.0000E+00
 -13.200  0.0000E+00  0.0000E+00
 -13.190  0.0000E+00  0.0000E+00
 -13.180  0.0000E+00  0.0000E+00
 -13.170  0.0000E+00  0.0000E+00
 -13.160  0.0000E+00  0.0000E+00
 -13.150  0.0000E+00  0.0000E+00
 -13.140  0.0000E+00  0.0000E+00
 -13.130  0.0000E+00  0.0000E+00
 -13.120  0.0000E+00  0.0000E+00
 -13.110  0.0000E+00  0.0000E+00
 -13.100  0.0000E+00  0.0000E+00
 -13.090  0.0000E+00  0.0000E+00
 -13.080  0.0000E+00  0.0000E+00
 -13.070  0.0000E+00  0.0000E+00
 -13.060  0.0000E+00  0.0000E+00
 -13.050  0.0000E+00  0.0000E+00
 -13.040  0.0000E+00  0.0000E+00
 -13.030  0.0000E+00  0.0000E+00
 -13.020  0.0000E+00  0.0000E+00
 -13.010  0.0000E+00  0.0000E+00
 -13.000  0.0000E+00  0.0000E+00
 -12.990  0.0000E+00  0.0000E+00
 -12.980  0.0000E+00  0.0000E+00
 -12.970  0.0000E+00  0.0000E+00
 -12.960  0.0000E+00  0.0000E+00
 -12.950  0.0000E+00  0.0000E+00
 -12.940  0.0000E+00  0.0000E+00
 -12.930  0.0000E+00  0.0000E+00
 -12.920  0.0000E+00  0.0000E+00
 -12.910  0.0000E+00  0.0000E+00
 -12.900  0.0000E+00  0.0000E+00
 -12.890  0.0000E+00  0.0000E+00
 -12.880  0.0000E+00  0.0000E+00
 -12.870  0.0000E+00  0.0000E+00
 -12.860  0.0000E+00  0.0000E+00
 -12.850  0.0000E+00  0.0000E+00
 -12.840  0.0000E+00  0.0000E+00
 -12.830  0.0000E+00  0.0000E+00
 -12.820  0.0000E+00  0.0000E+00
 -12.810  0.0000E+00  0.0000E+00
 -12.800  0.0000E+00  0.0000E+00
 -12.790  0.0000E+00  0.0000E+00
 -12.780  0.0000E+00  0.0000E+00
 -12.770  0.0000E+00  0.0000E+00
 -12.760  0.0000E+00  0.0000E+00
 -12.750  0.0000E+00  0.0000E+00
 -12.740  0.0000E+00  0.0000E+00
 -12.730  0.0000E+00  0.0000E+00
 -12.720  0.0000E+00  0.0000E+00
 -12.710  0.0000E+00  0.0000E+00
 -12.700  0.0000E+00  0.0000E+00
 -12.690  0.0000E+00  0.0000E+00
 -12.680  0.0000E+00  0.0000E+00
 -12.670  0.0000E+00  0.0000E+00
 -12.660  0.0000E+00  0.0000E+00
 -12.650  0.0000E+00  0.0000E+00
 -12.640  0.0000E+00  0.0000E+00
 -12.630  0.0000E+00  0.0000E+00
 -12.620  0.0000E+00  0.0000E+00
 -12.610  0.0000E+00  0.0000E+00
 -12.600  0.0000E+00  0.0000E+00
 -12.590  0.0000E+00  0.0000E+00
 -12.580  0.0000E+00  0.0000E+00
 -12.570  0.0000E+00  0.0000E+00
 -12.560  0.0000E+00  0.0000E+00
 -12.550  0.0000E+00  0.0000E+00
 -12.540  0.0000E+00  0.0000E+00
 -12.530  0.0000E+00  0.0000E+00
 -12.520  0.0000E+00  0.0000E+00
 -12.510  0.0000E+00  0.0000E+00
 -12.500  0.0000E+00  0.0000E+00
 -12.490  0.0000E+00  0.0000E+00
 -12.480  0.0000E+00  0.0000E+00
 -12.470  0.0000E+00  0.0000E+00
 -12.460  0.0000E+00  0.0000E+00
 -12.450  0.0000E+00  0.0000E+00
 -12.440  0.0000E+00  0.0000E+00
 -12.430  0.0000E+00  0.0000E+00
 -12.420  0.0000E+00  0.0000E+00
 -12.410  0.0000E+00  0.0000E+00
 -12.400  0.0000E+00  0.0000E+00
 -12.390  0.0000E+00  0.0000E+00
 -12.380  0.0000E+00  0.0000E+00
 -12.370  0.0000E+00  0.0000E+00
 -12.360  0.0000E+00  0.0000E+00
 -12.350  0.0000E+00  0.0000E+00
 -12.340  0.0000E+00  0.0000E+00
 -12.330  0.0000E+00  0.0000E+00
 -12.320  0.0000E+00  0.0000E+00
 -12.310  0.0000E+00  0.0000E+00
 -12.300  0.0000E+00  0.0000E+00
 -12.290  0.0000E+00  0.0000E+00
 -12.280  0.0000E+00  0.0000E+00
 -12.270  0.0000E+00  0.0000E+00
 -12.260  0.0000E+00  0.0000E+00
 -12.250  0.0000E+00  0.0000E+00
 -12.240  0.0000E+00  0.0000E+00
 -12.230  0.0000E+00  0.0000E+00
 -12.220  0.0000E+00  0.0000E+00
 -12.210  0.0000E+00  0.0000E+00
 -12.200  0.0000E+00  0.0000E+00
 -12.190  0.0000E+00  0.0000E+00
 -12.180  0.0000E+00  0.0000E+00
 -12.170  0.0000E+00  0.0000E+00
 -12.160  0.0000E+00  0.0000E+00
 -12.150  0.0000E+00  0.0000E+00
 -12.140  0.0000E+00  0.0000E+00
 -12.130  0.0000E+00  0.0000E+00
 -12.120  0.0000E+00  0.0000E+00
 -12.110  0.0000E+00  0.0000E+00
 -12.100  0.0000E+00  0.0000E+00
 -12.090  0.0000E+00  0.0000E+00
 -12.080  0.0000E+00  0.0000E+00
 -12.070  0.0000E+00  0.0000E+00
 -12.060  0.0000E+00  0.0000E+00
 -12.050  0.0000E+00  0.0000E+00
 -12.040  0.0000E+00  0.0000E+00
 -12.030  0.0000E+00  0.0000E+00
 -12.020  0.0000E+00  0.0000E+00
 -12.010  0.0000E+00  0.0000E+00
 -12.000  0.0000E+00  0.0000E+00
 -11.990  0.0000E+00  0.0000E+00
 -11.980  0.0000E+00  0.0000E+00
 -11.970  0.0000E+00  0.0000E+00
 -11.960  0.0000E+00  0.0000E+00
 -11.950  0.0000E+00  0.0000E+00
 -11.940  0.0000E+00  0.0000E+00
 -11.930  0.0000E+00  0.0000E+00
 -11.920  0.0000E+00  0.0000E+00
 -11.910  0.0000E+00  0.0000E+00
 -11.900  0.0000E+00  0.0000E+00
 -11.890  0.0000E+00  0.0000E+00
 -11.880  0.0000E+00  0.0000E+00
 -11.870  0.0000E+00  0.0000E+00
 -11.860  0.0000E+00  0.0000E+00
 -11.850  0.0000E+00  0.0000E+00
 -11.840  0.0000E+00  0.0000E+00
 -11.830  0.0000E+00  0.0000E+00
 -11.820  0.0000E+00  0.0000E+00
 -11.810  0.0000E+00  0.0000E+00
 -11.800  0.0000E+00  0.0000E+00
 -11.790  0.0000E+00  0.0000E+00
 -11.780  0.0000E+00  0.0000E+00
 -11.770  0.0000E+00  0.0000E+00
 -11.760  0.0000E+00  0.0000E+00
 -11.750  0.0000E+00  0.0000E+00
 -11.740  0.0000E+00  0.0000E+00
 -11.730  0.0000E+00  0.0000E+00
 -11.720  0.0000E+00  0.0000E+00
 -11.710  0.0000E+00  0.0000E+00
 -11.700  0.0000E+00  0.0000E+00
 -11.690  0.0000E+00  0.0000E+00
 -11.680  0.0000E+00  0.0000E+00
 -11.670  0.0000E+00  0.0000E+00
 -11.660  0.0000E+00  0.0000E+00
 -11.650  0.0000E+00  0.0000E+00
 -11.640  0.0000E+00  0.0000E+00
 -11.630  0.0000E+00  0.0000E+00
 -11.620  0.0000E+00  0.0000E+00
 -11.610  0.0000E+00  0.0000E+00
 -11.600  0.0000E+00  0.0000E+00
 -11.590  0.0000E+00  0.0000E+00
 -11.580  0.0000E+00  0.0000E+00
 -11.570  0.0000E+00  0.0000E+00
 -11.560  0.0000E+00  0.0000E+00
 -11.550  0.0000E+00  0.0000E+00
 -11.540  0.0000E+00  0.0000E+00
 -11.530  0.0000E+00  0.0000E+00
 -11.520  0.0000E+00  0.0000E+00
 -11.510  0.0000E+00  0.0000E+00
 -11.500  0.0000E+00  0.0000E+00
 -11.490  0.0000E+00  0.0000E+00
 -11.480  0.0000E+00  0.0000E+00
 -11.470  0.0000E+00  0.0000E+00
 -11.460  0.0000E+00  0.0000E+00
 -11.450  0.0000E+00  0.0000E+00
 -11.440  0.0000E+00  0.0000E+00
 -11.430  0.0000E+00  0.0000E+00
 -11.420  0.0000E+00  0.0000E+00
 -11.410  0.0000E+00  0.0000E+00
 -11.400  0.0000E+00  0.0000E+00
 -11.390  0.0000E+00  0.0000E+00
 -11.380  0.0000E+00  0.0000E+00
 -11.370  0.0000E+00  0.0000E+00
 -11.360  0.0000E+00  0.0000E+00
 -11.350  0.0000E+00  0.0000E+00
 -11.340  0.0000E+00  0.0000E+00
 -11.330  0.0000E+00  0.0000E+00
 -11.320  0.0000E+00  0.0000E+00
 -11.310  0.0000E+00  0.0000E+00
 -11.300  0.0000E+00  0.0000E+00
 -11.290  0.0000E+00  0.0000E+00
 -11.280  0.0000E+00  0.0000E+00
 -11.270  0.0000E+00  0.0000E+00
 -11.260  0.0000E+00  0.0000E+00
 -11.250  0.0000E+00  0.0000E+00
 -11.240  0.0000E+00  0.0000E+00
 -11.230  0.0000E+00  0.0000E+00
 -11.220  0.0000E+00  0.0000E+00
 -11.210  0.0000E+00  0.0000E+00
 -11.200  0.0000E+00  0.0000E+00
 -11.190  0.0000E+00  0.0000E+00
 -11.180  0.0000E+00  0.0000E+00
 -11.170  0.0000E+00  0.0000E+00
 -11.160  0.0000E+00  0.0000E+00
 -11.150  0.0000E+00  0.0000E+00
 -11.140  0.0000E+00  0.0000E+00
 -11.130  0.0000E+00  0.0000E+00
 -11.120  0.0000E+00  0.0000E+00
 -11.110  0.0000E+00  0.0000E+00
 -11.100  0.0000E+00  0.0000E+00
 -11.090  0.0000E+00  0.0000E+00
 -11.080  0.0000E+00  0.0000E+00
 -11.070  0.0000E+00  0.0000E+00
 -11.060  0.0000E+00  0.0000E+00
 -11.050  0.0000E+00  0.0000E+00
 -11.040  0.0000E+00  0.0000E+00
 -11.030  0.0000E+00  0.0000E+00
 -11.020  0.0000E+00  0.0000E+00
 -11.010  0.0000E+00  0.0000E+00
 -11.000  0.0000E+00  0.0000E+00
 -10.990  0.0000E+00  0.0000E+00
 -10.980  0.0000E+00  0.0000E+00
 -10.970  0.0000E+00  0.0000E+00
 -10.960  0.0000E+00  0.0000E+00
 -10.950  0.0000E+00  0.0000E+00
 -10.940  0.0000E+00  0.0000E+00
 -10.930  0.0000E+00  0.0000E+00
 -10.920  0.0000E+00  0.0000E+00
 -10.910  0.0000E+00  0.0000E+00
 -10.900  0.0000E+00  0.0000E+00
 -10.890  0.0000E+00  0.0000E+00
 -10.880  0.0000E+00  0.0000E+00
 -10.870  0.0000E+00  0.0000E+00
 -10.860  0.0000E+00  0.0000E+00
 -10.850  0.0000E+00  0.0000E+00
 -10.840  0.0000E+00  0.0000E+00
 -10.830  0.0000E+00  0.0000E+00
 -10.820  0.0000E+00  0.0000E+00
 -10.810  0.0000E+00  0.0000E+00
 -10.800  0.0000E+00  0.0000E+00
 -10.790  0.0000E+00  0.0000E+00
 -10.780  0.0000E+00  0.0000E+00
 -10.770  0.0000E+00  0.0000E+00
 -10.760  0.0000E+00  0.0000E+00
 -10.750  0.0000E+00  0.0000E+00
 -10.740  0.0000E+00  0.0000E+00
 -10.730  0.0000E+00  0.0000E+00
 -10.720  0.0000E+00  0.0000E+00
 -10.710  0.0000E+00  0.0000E+00
 -10.700  0.0000E+00  0.0000E+00
 -10.690  0.0000E+00  0.0000E+00
 -10.680  0.0000E+00  0.0000E+00
 -10.670  0.0000E+00  0.0000E+00
 -10.660  0.0000E+00  0.0000E+00
 -10.650  0.0000E+00  0.0000E+00
 -10.640  0.0000E+00  0.0000E+00
 -10.630  0.0000E+00  0.0000E+00
 -10.620  0.0000E+00  0.0000E+00
 -10.610  0.0000E+00  0.0000E+00
 -10.600  0.0000E+00  0.0000E+00
 -10.590  0.0000E+00  0.0000E+00
 -10.580  0.0000E+00  0.0000E+00
 -10.570  0.0000E+00  0.0000E+00
 -10.560  0.0000E+00  0.0000E+00
 -10.550  0.0000E+00  0.0000E+00
 -10.540  0.0000E+00  0.0000E+00
 -10.530  0.0000E+00  0.0000E+00
 -10.520  0.0000E+00  0.0000E+00
 -10.510  0.0000E+00  0.0000E+00
 -10.500  0.0000E+00  0.0000E+00
 -10.490  0.0000E+00  0.0000E+00
 -10.480  0.0000E+00  0.0000E+00
 -10.470  0.0000E+00  0.0000E+00
 -10.460  0.0000E+00  0.0000E+00
 -10.450  0.0000E+00  0.0000E+00
 -10.440  0.0000E+00  0.0000E+00
 -10.430  0.0000E+00  0.0000E+00
 -10.420  0.0000E+00  0.0000E+00
 -10.410  0.0000E+00  0.0000E+00
 -10.400  0.0000E+00  0.0000E+00
 -10.390  0.0000E+00  0.0000E+00
 -10.380  0.0000E+00  0.0000E+00
 -10.370  0.0000E+00  0.0000E+00
 -10.360  0.0000E+00  0.0000E+00
 -10.350  0.0000E+00  0.0000E+00
 -10.340  0.0000E+00  0.0000E+00
 -10.330  0.0000E+00  0.0000E+00
 -10.320  0.0000E+00  0.0000E+00
 -10.310  0.0000E+00  0.0000E+00
 -10.300  0.0000E+00  0.0000E+00
 -10.290  0.0000E+00  0.0000E+00
 -10.280  0.0000E+00  0.0000E+00
 -10.270  0.0000E+00  0.0000E+00
 -10.260  0.0000E+00  0.0000E+00
 -10.250  0.0000E+00  0.0000E+00
 -10.240  0.0000E+00  0.0000E+00
 -10.230  0.0000E+00  0.0000E+00
 -10.220  0.0000E+00  0.0000E+00
 -10.210  0.0000E+00  0.0000E+00
 -10.200  0.0000E+00  0.0000E+00
 -10.190  0.0000E+00  0.0000E+00
 -10.180  0.0000E+00  0.0000E+00
 -10.170  0.0000E+00  0.0000E+00
 -10.160  0.0000E+00  0.0000E+00
 -10.150  0.0000E+00  0.0000E+00
 -10.140  0.0000E+00  0.0000E+00
 -10.130  0.0000E+00  0.0000E+00
 -10.120  0.0000E+00  0.0000E+00
 -10.110  0.0000E+00  0.0000E+00
 -10.100  0.0000E+00  0.0000E+00
 -10.090  0.0000E+00  0.0000E+00
 -10.080  0.0000E+00  0.0000E+00
 -10.070  0.0000E+00  0.0000E+00
 -10.060  0.0000E+00  0.0000E+00
 -10.050  0.0000E+00  0.0000E+00
 -10.040  0.0000E+00  0.0000E+00
 -10.030  0.1197E+00  0.1153E-03
 -10.020  0.7992E+00  0.5318E-02
 -10.010  0.1037E+01  0.1624E-01
 -10.000  0.1090E+01  0.2722E-01
  -9.990  0.1131E+01  0.3839E-01
  -9.980  0.1073E+01  0.4921E-01
  -9.970  0.1124E+01  0.6034E-01
  -9.960  0.1083E+01  0.7151E-01
  -9.950  0.1088E+01  0.8230E-01
  -9.940  0.1147E+01  0.9344E-01
  -9.930  0.1166E+01  0.1048E+00
  -9.920  0.1705E+01  0.1201E+00
  -9.910  0.2139E+01  0.1416E+00
  -9.900  0.2238E+01  0.1641E+00
  -9.890  0.2275E+01  0.1868E+00
  -9.880  0.2196E+01  0.2089E+00
  -9.870  0.2256E+01  0.2313E+00
  -9.860  0.2236E+01  0.2539E+00
  -9.850  0.2253E+01  0.2764E+00
  -9.840  0.2288E+01  0.2991E+00
  -9.830  0.2249E+01  0.3218E+00
  -9.820  0.2231E+01  0.3441E+00
  -9.810  0.2274E+01  0.3666E+00
  -9.800  0.2325E+01  0.3897E+00
  -9.790  0.2288E+01  0.4128E+00
  -9.780  0.2252E+01  0.4353E+00
  -9.770  0.2270E+01  0.4579E+00
  -9.760  0.2294E+01  0.4807E+00
  -9.750  0.2310E+01  0.5038E+00
  -9.740  0.2314E+01  0.5269E+00
  -9.730  0.2290E+01  0.5500E+00
  -9.720  0.2283E+01  0.5728E+00
  -9.710  0.2313E+01  0.5958E+00
  -9.700  0.2324E+01  0.6190E+00
  -9.690  0.2311E+01  0.6422E+00
  -9.680  0.2322E+01  0.6654E+00
  -9.670  0.2333E+01  0.6886E+00
  -9.660  0.2330E+01  0.7120E+00
  -9.650  0.2342E+01  0.7353E+00
  -9.640  0.2344E+01  0.7587E+00
  -9.630  0.2333E+01  0.7821E+00
  -9.620  0.2338E+01  0.8055E+00
  -9.610  0.2355E+01  0.8289E+00
  -9.600  0.2369E+01  0.8526E+00
  -9.590  0.2370E+01  0.8763E+00
  -9.580  0.2381E+01  0.9000E+00
  -9.570  0.2376E+01  0.9238E+00
  -9.560  0.2361E+01  0.9475E+00
  -9.550  0.2365E+01  0.9711E+00
  -9.540  0.2385E+01  0.9948E+00
  -9.530  0.2406E+01  0.1019E+01
  -9.520  0.2417E+01  0.1043E+01
  -9.510  0.2413E+01  0.1067E+01
  -9.500  0.2410E+01  0.1091E+01
  -9.490  0.2404E+01  0.1115E+01
  -9.480  0.2407E+01  0.1139E+01
  -9.470  0.2411E+01  0.1163E+01
  -9.460  0.2424E+01  0.1188E+01
  -9.450  0.2447E+01  0.1212E+01
  -9.440  0.2469E+01  0.1237E+01
  -9.430  0.2466E+01  0.1261E+01
  -9.420  0.2445E+01  0.1286E+01
  -9.410  0.2445E+01  0.1310E+01
  -9.400  0.2454E+01  0.1335E+01
  -9.390  0.2463E+01  0.1359E+01
  -9.380  0.2472E+01  0.1384E+01
  -9.370  0.2485E+01  0.1409E+01
  -9.360  0.2504E+01  0.1434E+01
  -9.350  0.2523E+01  0.1459E+01
  -9.340  0.2512E+01  0.1484E+01
  -9.330  0.2499E+01  0.1509E+01
  -9.320  0.2501E+01  0.1534E+01
  -9.310  0.2509E+01  0.1559E+01
  -9.300  0.2522E+01  0.1584E+01
  -9.290  0.2536E+01  0.1610E+01
  -9.280  0.2548E+01  0.1635E+01
  -9.270  0.2563E+01  0.1661E+01
  -9.260  0.2575E+01  0.1686E+01
  -9.250  0.2570E+01  0.1712E+01
  -9.240  0.2566E+01  0.1738E+01
  -9.230  0.2569E+01  0.1763E+01
  -9.220  0.2576E+01  0.1789E+01
  -9.210  0.2587E+01  0.1815E+01
  -9.200  0.2598E+01  0.1841E+01
  -9.190  0.2615E+01  0.1867E+01
  -9.180  0.2630E+01  0.1893E+01
  -9.170  0.2639E+01  0.1919E+01
  -9.160  0.2644E+01  0.1946E+01
  -9.150  0.2641E+01  0.1972E+01
  -9.140  0.2642E+01  0.1999E+01
  -9.130  0.2652E+01  0.2025E+01
  -9.120  0.2660E+01  0.2052E+01
  -9.110  0.2672E+01  0.2078E+01
  -9.100  0.2688E+01  0.2105E+01
  -9.090  0.2701E+01  0.2132E+01
  -9.080  0.2716E+01  0.2159E+01
  -9.070  0.2724E+01  0.2186E+01
  -9.060  0.2729E+01  0.2214E+01
  -9.050  0.2734E+01  0.2241E+01
  -9.040  0.2738E+01  0.2268E+01
  -9.030  0.2745E+01  0.2296E+01
  -9.020  0.2757E+01  0.2323E+01
  -9.010  0.2771E+01  0.2351E+01
  -9.000  0.2786E+01  0.2379E+01
  -8.990  0.2804E+01  0.2407E+01
  -8.980  0.2816E+01  0.2435E+01
  -8.970  0.2821E+01  0.2463E+01
  -8.960  0.2833E+01  0.2491E+01
  -8.950  0.2841E+01  0.2520E+01
  -8.940  0.2850E+01  0.2548E+01
  -8.930  0.2861E+01  0.2577E+01
  -8.920  0.2872E+01  0.2605E+01
  -8.910  0.2884E+01  0.2634E+01
  -8.900  0.2901E+01  0.2663E+01
  -8.890  0.2920E+01  0.2692E+01
  -8.880  0.2937E+01  0.2721E+01
  -8.870  0.2947E+01  0.2751E+01
  -8.860  0.2957E+01  0.2780E+01
  -8.850  0.2968E+01  0.2810E+01
  -8.840  0.2978E+01  0.2840E+01
  -8.830  0.2995E+01  0.2869E+01
  -8.820  0.3013E+01  0.2900E+01
  -8.810  0.3027E+01  0.2930E+01
  -8.800  0.3041E+01  0.2960E+01
  -8.790  0.3059E+01  0.2991E+01
  -8.780  0.3079E+01  0.3021E+01
  -8.770  0.3097E+01  0.3052E+01
  -8.760  0.3113E+01  0.3083E+01
  -8.750  0.3129E+01  0.3114E+01
  -8.740  0.3140E+01  0.3146E+01
  -8.730  0.3153E+01  0.3177E+01
  -8.720  0.3176E+01  0.3209E+01
  -8.710  0.3200E+01  0.3241E+01
  -8.700  0.3220E+01  0.3273E+01
  -8.690  0.3239E+01  0.3305E+01
  -8.680  0.3257E+01  0.3338E+01
  -8.670  0.3276E+01  0.3370E+01
  -8.660  0.3300E+01  0.3403E+01
  -8.650  0.3325E+01  0.3436E+01
  -8.640  0.3346E+01  0.3470E+01
  -8.630  0.3363E+01  0.3503E+01
  -8.620  0.3382E+01  0.3537E+01
  -8.610  0.3410E+01  0.3571E+01
  -8.600  0.3441E+01  0.3605E+01
  -8.590  0.3469E+01  0.3640E+01
  -8.580  0.3493E+01  0.3674E+01
  -8.570  0.3514E+01  0.3710E+01
  -8.560  0.3538E+01  0.3745E+01
  -8.550  0.3573E+01  0.3780E+01
  -8.540  0.3607E+01  0.3816E+01
  -8.530  0.3635E+01  0.3852E+01
  -8.520  0.3662E+01  0.3889E+01
  -8.510  0.3689E+01  0.3926E+01
  -8.500  0.3727E+01  0.3963E+01
  -8.490  0.3769E+01  0.4000E+01
  -8.480  0.3805E+01  0.4038E+01
  -8.470  0.3836E+01  0.4076E+01
  -8.460  0.3867E+01  0.4115E+01
  -8.450  0.3909E+01  0.4154E+01
  -8.440  0.3958E+01  0.4193E+01
  -8.430  0.4002E+01  0.4233E+01
  -8.420  0.4043E+01  0.4273E+01
  -8.410  0.4081E+01  0.4314E+01
  -8.400  0.4130E+01  0.4355E+01
  -8.390  0.4189E+01  0.4396E+01
  -8.380  0.4242E+01  0.4438E+01
  -8.370  0.4290E+01  0.4481E+01
  -8.360  0.4339E+01  0.4524E+01
  -8.350  0.4405E+01  0.4568E+01
  -8.340  0.4474E+01  0.4612E+01
  -8.330  0.4541E+01  0.4657E+01
  -8.320  0.4603E+01  0.4703E+01
  -8.310  0.4671E+01  0.4750E+01
  -8.300  0.4757E+01  0.4797E+01
  -8.290  0.4842E+01  0.4845E+01
  -8.280  0.4918E+01  0.4893E+01
  -8.270  0.5007E+01  0.4943E+01
  -8.260  0.5115E+01  0.4994E+01
  -8.250  0.5219E+01  0.5045E+01
  -8.240  0.5331E+01  0.5098E+01
  -8.230  0.5454E+01  0.5152E+01
  -8.220  0.5597E+01  0.5207E+01
  -8.210  0.5742E+01  0.5264E+01
  -8.200  0.5888E+01  0.5322E+01
  -8.190  0.6075E+01  0.5382E+01
  -8.180  0.6272E+01  0.5444E+01
  -8.170  0.6503E+01  0.5507E+01
  -8.160  0.6771E+01  0.5574E+01
  -8.150  0.7093E+01  0.5643E+01
  -8.140  0.7528E+01  0.5716E+01
  -8.130  0.8039E+01  0.5794E+01
  -8.120  0.9019E+01  0.5878E+01
  -8.110  0.9968E+01  0.5975E+01
  -8.100  0.9416E+01  0.6074E+01
  -8.090  0.9177E+01  0.6166E+01
  -8.080  0.9401E+01  0.6258E+01
  -8.070  0.9900E+01  0.6358E+01
  -8.060  0.9277E+01  0.6458E+01
  -8.050  0.8202E+01  0.6547E+01
  -8.040  0.7869E+01  0.6628E+01
  -8.030  0.7399E+01  0.6704E+01
  -8.020  0.7009E+01  0.6776E+01
  -8.010  0.6727E+01  0.6845E+01
  -8.000  0.6509E+01  0.6911E+01
  -7.990  0.6249E+01  0.6975E+01
  -7.980  0.6053E+01  0.7037E+01
  -7.970  0.5925E+01  0.7097E+01
  -7.960  0.5782E+01  0.7155E+01
  -7.950  0.5642E+01  0.7212E+01
  -7.940  0.5500E+01  0.7268E+01
  -7.930  0.5303E+01  0.7322E+01
  -7.920  0.5185E+01  0.7374E+01
  -7.910  0.5140E+01  0.7426E+01
  -7.900  0.5079E+01  0.7477E+01
  -7.890  0.4907E+01  0.7527E+01
  -7.880  0.4781E+01  0.7576E+01
  -7.870  0.4709E+01  0.7623E+01
  -7.860  0.4697E+01  0.7670E+01
  -7.850  0.4552E+01  0.7717E+01
  -7.840  0.4410E+01  0.7762E+01
  -7.830  0.4406E+01  0.7806E+01
  -7.820  0.4330E+01  0.7851E+01
  -7.810  0.4164E+01  0.7894E+01
  -7.800  0.3256E+01  0.7930E+01
  -7.790  0.2211E+01  0.7954E+01
  -7.780  0.2281E+01  0.7975E+01
  -7.770  0.1032E+01  0.7995E+01
  -7.760  0.0000E+00  0.8000E+01
  -7.750  0.0000E+00  0.8000E+01
  -7.740  0.0000E+00  0.8000E+01
  -7.730  0.0000E+00  0.8000E+01
  -7.720  0.0000E+00  0.8000E+01
  -7.710  0.0000E+00  0.8000E+01
  -7.700  0.0000E+00  0.8000E+01
  -7.690  0.0000E+00  0.8000E+01
  -7.680  0.0000E+00  0.8000E+01
  -7.670  0.0000E+00  0.8000E+01
  -7.660  0.0000E+00  0.8000E+01
  -7.650  0.0000E+00  0.8000E+01
  -7.640  0.0000E+00  0.8000E+01
  -7.630  0.0000E+00  0.8000E+01
  -7.620  0.0000E+00  0.8000E+01
  -7.610  0.0000E+00  0.8000E+01
  -7.600  0.0000E+00  0.8000E+01
  -7.590  0.0000E+00  0.8000E+01
  -7.580  0.0000E+00  0.8000E+01
  -7.570  0.0000E+00  0.8000E+01
  -7.560  0.0000E+00  0.8000E+01
  -7.550  0.0000E+00  0.8000E+01
  -7.540  0.0000E+00  0.8000E+01
  -7.530  0.0000E+00  0.8000E+01
  -7.520  0.0000E+00  0.8000E+01
  -7.510  0.0000E+00  0.8000E+01
  -7.500  0.0000E+00  0.8000E+01
  -7.490  0.0000E+00  0.8000E+01
  -7.480  0.0000E+00  0.8000E+01
  -7.470  0.0000E+00  0.8000E+01
  -7.460  0.0000E+00  0.8000E+01
  -7.450  0.0000E+00  0.8000E+01
  -7.440  0.0000E+00  0.8000E+01
  -7.430  0.0000E+00  0.8000E+01
  -7.420  0.0000E+00  0.8000E+01
  -7.410  0.0000E+00  0.8000E+01
  -7.400  0.0000E+00  0.8000E+01
  -7.390  0.0000E+00  0.8000E+01
  -7.380  0.0000E+00  0.8000E+01
  -7.370  0.0000E+00  0.8000E+01
  -7.360  0.0000E+00  0.8000E+01
  -7.350  0.0000E+00  0.8000E+01
  -7.340  0.0000E+00  0.8000E+01
  -7.330  0.0000E+00  0.8000E+01
  -7.320  0.0000E+00  0.8000E+01
  -7.310  0.0000E+00  0.8000E+01
  -7.300  0.0000E+00  0.8000E+01
  -7.290  0.0000E+00  0.8000E+01
  -7.280  0.0000E+00  0.8000E+01
  -7.270  0.0000E+00  0.8000E+01
  -7.260  0.0000E+00  0.8000E+01
  -7.250  0.0000E+00  0.8000E+01
  -7.240  0.0000E+00  0.8000E+01
  -7.230  0.0000E+00  0.8000E+01
  -7.220  0.0000E+00  0.8000E+01
  -7.210  0.0000E+00  0.8000E+01
  -7.200  0.0000E+00  0.8000E+01
  -7.190  0.0000E+00  0.8000E+01
  -7.180  0.0000E+00  0.8000E+01
  -7.170  0.0000E+00  0.8000E+01
  -7.160  0.0000E+00  0.8000E+01
  -7.150  0.0000E+00  0.8000E+01
  -7.140  0.0000E+00  0.8000E+01
  -7.130  0.0000E+00  0.8000E+01
  -7.120  0.0000E+00  0.8000E+01
  -7.110  0.0000E+00  0.8000E+01
  -7.100  0.0000E+00  0.8000E+01
  -7.090  0.0000E+00  0.8000E+01
  -7.080  0.0000E+00  0.8000E+01
  -7.070  0.0000E+00  0.8000E+01
  -7.060  0.0000E+00  0.8000E+01
  -7.050  0.0000E+00  0.8000E+01
  -7.040  0.0000E+00  0.8000E+01
  -7.030  0.0000E+00  0.8000E+01
  -7.020  0.0000E+00  0.8000E+01
  -7.010  0.0000E+00  0.8000E+01
  -7.000  0.0000E+00  0.8000E+01
  -6.990  0.0000E+00  0.8000E+01
  -6.980  0.0000E+00  0.8000E+01
  -6.970  0.0000E+00  0.8000E+01
  -6.960  0.0000E+00  0.8000E+01
  -6.950  0.0000E+00  0.8000E+01
  -6.940  0.0000E+00  0.8000E+01
  -6.930  0.0000E+00  0.8000E+01
  -6.920  0.0000E+00  0.8000E+01
  -6.910  0.0000E+00  0.8000E+01
  -6.900  0.0000E+00  0.8000E+01
  -6.890  0.0000E+00  0.8000E+01
  -6.880  0.0000E+00  0.8000E+01
  -6.870  0.0000E+00  0.8000E+01
  -6.860  0.0000E+00  0.8000E+01
  -6.850  0.0000E+00  0.8000E+01
  -6.840  0.0000E+00  0.8000E+01
  -6.830  0.0000E+00  0.8000E+01
  -6.820  0.0000E+00  0.8000E+01
  -6.810  0.0000E+00  0.8000E+01
  -6.800  0.0000E+00  0.8000E+01
  -6.790  0.0000E+00  0.8000E+01
  -6.780  0.0000E+00  0.8000E+01
  -6.770  0.0000E+00  0.8000E+01
  -6.760  0.0000E+00  0.8000E+01
  -6.750  0.0000E+00  0.8000E+01
  -6.740  0.0000E+00  0.8000E+01
  -6.730  0.0000E+00  0.8000E+01
  -6.720  0.0000E+00  0.8000E+01
  -6.710  0.0000E+00  0.8000E+01
  -6.700  0.0000E+00  0.8000E+01
  -6.690  0.0000E+00  0.8000E+01
  -6.680  0.0000E+00  0.8000E+01
  -6.670  0.0000E+00  0.8000E+01
  -6.660  0.0000E+00  0.8000E+01
  -6.650  0.0000E+00  0.8000E+01
  -6.640  0.0000E+00  0.8000E+01
  -6.630  0.0000E+00  0.8000E+01
  -6.620  0.0000E+00  0.8000E+01
  -6.610  0.0000E+00  0.8000E+01
  -6.600  0.0000E+00  0.8000E+01
  -6.590  0.0000E+00  0.8000E+01
  -6.580  0.0000E+00  0.8000E+01
  -6.570  0.0000E+00  0.8000E+01
  -6.560  0.0000E+00  0.8000E+01
  -6.550  0.0000E+00  0.8000E+01
  -6.540  0.0000E+00  0.8000E+01
  -6.530  0.0000E+00  0.8000E+01
  -6.520  0.0000E+00  0.8000E+01
  -6.510  0.0000E+00  0.8000E+01
  -6.500  0.0000E+00  0.8000E+01
  -6.490  0.0000E+00  0.8000E+01
  -6.480  0.0000E+00  0.8000E+01
  -6.470  0.0000E+00  0.8000E+01
  -6.460  0.0000E+00  0.8000E+01
  -6.450  0.0000E+00  0.8000E+01
  -6.440  0.0000E+00  0.8000E+01
  -6.430  0.0000E+00  0.8000E+01
  -6.420  0.0000E+00  0.8000E+01
  -6.410  0.0000E+00  0.8000E+01
  -6.400  0.0000E+00  0.8000E+01
  -6.390  0.0000E+00  0.8000E+01
  -6.380  0.0000E+00  0.8000E+01
  -6.370  0.0000E+00  0.8000E+01
  -6.360  0.0000E+00  0.8000E+01
  -6.350  0.0000E+00  0.8000E+01
  -6.340  0.0000E+00  0.8000E+01
  -6.330  0.0000E+00  0.8000E+01
  -6.320  0.0000E+00  0.8000E+01
  -6.310  0.0000E+00  0.8000E+01
  -6.300  0.0000E+00  0.8000E+01
  -6.290  0.0000E+00  0.8000E+01
  -6.280  0.0000E+00  0.8000E+01
  -6.270  0.0000E+00  0.8000E+01
  -6.260  0.0000E+00  0.8000E+01
  -6.250  0.0000E+00  0.8000E+01
  -6.240  0.0000E+00  0.8000E+01
  -6.230  0.0000E+00  0.8000E+01
  -6.220  0.0000E+00  0.8000E+01
  -6.210  0.0000E+00  0.8000E+01
  -6.200  0.0000E+00  0.8000E+01
  -6.190  0.0000E+00  0.8000E+01
  -6.180  0.0000E+00  0.8000E+01
  -6.170  0.0000E+00  0.8000E+01
  -6.160  0.0000E+00  0.8000E+01
  -6.150  0.0000E+00  0.8000E+01
  -6.140  0.0000E+00  0.8000E+01
  -6.130  0.0000E+00  0.8000E+01
  -6.120  0.0000E+00  0.8000E+01
  -6.110  0.0000E+00  0.8000E+01
  -6.100  0.0000E+00  0.8000E+01
  -6.090  0.0000E+00  0.8000E+01
  -6.080  0.0000E+00  0.8000E+01
  -6.070  0.0000E+00  0.8000E+01
  -6.060  0.0000E+00  0.8000E+01
  -6.050  0.0000E+00  0.8000E+01
  -6.040  0.0000E+00  0.8000E+01
  -6.030  0.0000E+00  0.8000E+01
  -6.020  0.0000E+00  0.8000E+01
  -6.010  0.0000E+00  0.8000E+01
  -6.000  0.0000E+00  0.8000E+01
  -5.990  0.0000E+00  0.8000E+01
  -5.980  0.0000E+00  0.8000E+01
  -5.970  0.0000E+00  0.8000E+01
  -5.960  0.0000E+00  0.8000E+01
  -5.950  0.0000E+00  0.8000E+01
  -5.940  0.0000E+00  0.8000E+01
  -5.930  0.0000E+00  0.8000E+01
  -5.920  0.0000E+00  0.8000E+01
  -5.910  0.0000E+00  0.8000E+01
  -5.900  0.0000E+00  0.8000E+01
  -5.890  0.0000E+00  0.8000E+01
  -5.880  0.0000E+00  0.8000E+01
  -5.870  0.0000E+00  0.8000E+01
  -5.860  0.0000E+00  0.8000E+01
  -5.850  0.0000E+00  0.8000E+01
  -5.840  0.0000E+00  0.8000E+01
  -5.830  0.0000E+00  0.8000E+01
  -5.820  0.0000E+00  0.8000E+01
  -5.810  0.0000E+00  0.8000E+01
  -5.800  0.0000E+00  0.8000E+01
  -5.790  0.0000E+00  0.8000E+01
  -5.780  0.0000E+00  0.8000E+01
  -5.770  0.0000E+00  0.8000E+01
  -5.760  0.0000E+00  0.8000E+01
  -5.750  0.0000E+00  0.8000E+01
  -5.740  0.0000E+00  0.8000E+01
  -5.730  0.0000E+00  0.8000E+01
  -5.720  0.0000E+00  0.8000E+01
  -5.710  0.0000E+00  0.8000E+01
  -5.700  0.0000E+00  0.8000E+01
  -5.690  0.0000E+00  0.8000E+01
  -5.680  0.0000E+00  0.8000E+01
  -5.670  0.0000E+00  0.8000E+01
  -5.660  0.0000E+00  0.8000E+01
  -5.650  0.0000E+00  0.8000E+01
  -5.640  0.0000E+00  0.8000E+01
  -5.630  0.0000E+00  0.8000E+01
  -5.620  0.0000E+00  0.8000E+01
  -5.610  0.0000E+00  0.8000E+01
  -5.600  0.0000E+00  0.8000E+01
  -5.590  0.0000E+00  0.8000E+01
  -5.580  0.0000E+00  0.8000E+01
  -5.570  0.0000E+00  0.8000E+01
  -5.560  0.0000E+00  0.8000E+01
  -5.550  0.0000E+00  0.8000E+01
  -5.540  0.0000E+00  0.8000E+01
  -5.530  0.0000E+00  0.8000E+01
  -5.520  0.0000E+00  0.8000E+01
  -5.510  0.0000E+00  0.8000E+01
  -5.500  0.0000E+00  0.8000E+01
  -5.490  0.0000E+00  0.8000E+01
  -5.480  0.0000E+00  0.8000E+01
  -5.470  0.0000E+00  0.8000E+01
  -5.460  0.0000E+00  0.8000E+01
  -5.450  0.0000E+00  0.8000E+01
  -5.440  0.0000E+00  0.8000E+01
  -5.430  0.0000E+00  0.8000E+01
  -5.420  0.0000E+00  0.8000E+01
  -5.410  0.0000E+00  0.8000E+01
  -5.400  0.0000E+00  0.8000E+01
  -5.390  0.0000E+00  0.8000E+01
  -5.380  0.0000E+00  0.8000E+01
  -5.370  0.0000E+00  0.8000E+01
  -5.360  0.0000E+00  0.8000E+01
  -5.350  0.0000E+00  0.8000E+01
  -5.340  0.0000E+00  0.8000E+01
  -5.330  0.0000E+00  0.8000E+01
  -5.320  0.0000E+00  0.8000E+01
  -5.310  0.0000E+00  0.8000E+01
  -5.300  0.0000E+00  0.8000E+01
  -5.290  0.0000E+00  0.8000E+01
  -5.280  0.0000E+00  0.8000E+01
  -5.270  0.0000E+00  0.8000E+01
  -5.260  0.0000E+00  0.8000E+01
  -5.250  0.0000E+00  0.8000E+01
  -5.240  0.0000E+00  0.8000E+01
  -5.230  0.0000E+00  0.8000E+01
  -5.220  0.0000E+00  0.8000E+01
  -5.210  0.0000E+00  0.8000E+01
  -5.200  0.0000E+00  0.8000E+01
  -5.190  0.0000E+00  0.8000E+01
  -5.180  0.0000E+00  0.8000E+01
  -5.170  0.0000E+00  0.8000E+01
  -5.160  0.0000E+00  0.8000E+01
  -5.150  0.0000E+00  0.8000E+01
  -5.140  0.0000E+00  0.8000E+01
  -5.130  0.0000E+00  0.8000E+01
  -5.120  0.0000E+00  0.8000E+01
  -5.110  0.0000E+00  0.8000E+01
  -5.100  0.0000E+00  0.8000E+01
  -5.090  0.0000E+00  0.8000E+01
  -5.080  0.0000E+00  0.8000E+01
  -5.070  0.0000E+00  0.8000E+01
  -5.060  0.0000E+00  0.8000E+01
  -5.050  0.0000E+00  0.8000E+01
  -5.040  0.0000E+00  0.8000E+01
  -5.030  0.0000E+00  0.8000E+01
  -5.020  0.0000E+00  0.8000E+01
  -5.010  0.0000E+00  0.8000E+01
  -5.000  0.0000E+00  0.8000E+01
  -4.990  0.0000E+00  0.8000E+01
  -4.980  0.0000E+00  0.8000E+01
  -4.970  0.0000E+00  0.8000E+01
  -4.960  0.0000E+00  0.8000E+01
  -4.950  0.0000E+00  0.8000E+01
  -4.940  0.0000E+00  0.8000E+01
  -4.930  0.0000E+00  0.8000E+01
  -4.920  0.0000E+00  0.8000E+01
  -4.910  0.0000E+00  0.8000E+01
  -4.900  0.0000E+00  0.8000E+01
  -4.890  0.0000E+00  0.8000E+01
  -4.880  0.0000E+00  0.8000E+01
  -4.870  0.0000E+00  0.8000E+01
  -4.860  0.0000E+00  0.8000E+01
  -4.850  0.0000E+00  0.8000E+01
  -4.840  0.0000E+00  0.8000E+01
  -4.830  0.0000E+00  0.8000E+01
  -4.820  0.0000E+00  0.8000E+01
  -4.810  0.0000E+00  0.8000E+01
  -4.800  0.0000E+00  0.8000E+01
  -4.790  0.0000E+00  0.8000E+01
  -4.780  0.0000E+00  0.8000E+01
  -4.770  0.0000E+00  0.8000E+01
  -4.760  0.0000E+00  0.8000E+01
  -4.750  0.0000E+00  0.8000E+01
  -4.740  0.0000E+00  0.8000E+01
  -4.730  0.0000E+00  0.8000E+01
  -4.720  0.0000E+00  0.8000E+01
  -4.710  0.0000E+00  0.8000E+01
  -4.700  0.0000E+00  0.8000E+01
  -4.690  0.0000E+00  0.8000E+01
  -4.680  0.0000E+00  0.8000E+01
  -4.670  0.0000E+00  0.8000E+01
  -4.660  0.0000E+00  0.8000E+01
  -4.650  0.0000E+00  0.8000E+01
  -4.640  0.0000E+00  0.8000E+01
  -4.630  0.0000E+00  0.8000E+01
  -4.620  0.0000E+00  0.8000E+01
  -4.610  0.0000E+00  0.8000E+01
  -4.600  0.0000E+00  0.8000E+01
  -4.590  0.0000E+00  0.8000E+01
  -4.580  0.0000E+00  0.8000E+01
  -4.570  0.0000E+00  0.8000E+01
  -4.560  0.0000E+00  0.8000E+01
  -4.550  0.0000E+00  0.8000E+01
  -4.540  0.0000E+00  0.8000E+01
  -4.530  0.0000E+00  0.8000E+01
  -4.520  0.0000E+00  0.8000E+01
  -4.510  0.0000E+00  0.8000E+01
  -4.500  0.0000E+00  0.8000E+01
  -4.490  0.0000E+00  0.8000E+01
  -4.480  0.0000E+00  0.8000E+01
  -4.470  0.0000E+00  0.8000E+01
  -4.460  0.0000E+00  0.8000E+01
  -4.450  0.0000E+00  0.8000E+01
  -4.440  0.0000E+00  0.8000E+01
  -4.430  0.0000E+00  0.8000E+01
  -4.420  0.0000E+00  0.8000E+01
  -4.410  0.0000E+00  0.8000E+01
  -4.400  0.0000E+00  0.8000E+01
  -4.390  0.0000E+00  0.8000E+01
  -4.380  0.0000E+00  0.8000E+01
  -4.370  0.0000E+00  0.8000E+01
  -4.360  0.0000E+00  0.8000E+01
  -4.350  0.0000E+00  0.8000E+01
  -4.340  0.0000E+00  0.8000E+01
  -4.330  0.0000E+00  0.8000E+01
  -4.320  0.0000E+00  0.8000E+01
  -4.310  0.0000E+00  0.8000E+01
  -4.300  0.0000E+00  0.8000E+01
  -4.290  0.0000E+00  0.8000E+01
  -4.280  0.0000E+00  0.8000E+01
  -4.270  0.0000E+00  0.8000E+01
  -4.260  0.0000E+00  0.8000E+01
  -4.250  0.0000E+00  0.8000E+01
  -4.240  0.0000E+00  0.8000E+01
  -4.230  0.0000E+00  0.8000E+01
  -4.220  0.0000E+00  0.8000E+01
  -4.210  0.0000E+00  0.8000E+01
  -4.200  0.0000E+00  0.8000E+01
  -4.190  0.0000E+00  0.8000E+01
  -4.180  0.0000E+00  0.8000E+01
  -4.170  0.0000E+00  0.8000E+01
  -4.160  0.0000E+00  0.8000E+01
  -4.150  0.0000E+00  0.8000E+01
  -4.140  0.0000E+00  0.8000E+01
  -4.130  0.0000E+00  0.8000E+01
  -4.120  0.0000E+00  0.8000E+01
  -4.110  0.0000E+00  0.8000E+01
  -4.100  0.0000E+00  0.8000E+01
  -4.090  0.0000E+00  0.8000E+01
  -4.080  0.0000E+00  0.8000E+01
  -4.070  0.0000E+00  0.8000E+01
  -4.060  0.0000E+00  0.8000E+01
  -4.050  0.0000E+00  0.8000E+01
  -4.040  0.0000E+00  0.8000E+01
  -4.030  0.0000E+00  0.8000E+01
  -4.020  0.0000E+00  0.8000E+01
  -4.010  0.0000E+00  0.8000E+01
  -4.000  0.0000E+00  0.8000E+01
  -3.990  0.0000E+00  0.8000E+01
  -3.980  0.0000E+00  0.8000E+01
  -3.970  0.0000E+00  0.8000E+01
  -3.960  0.0000E+00  0.8000E+01
  -3.950  0.0000E+00  0.8000E+01
  -3.940  0.0000E+00  0.8000E+01
  -3.930  0.0000E+00  0.8000E+01
  -3.920  0.0000E+00  0.8000E+01
  -3.910  0.0000E+00  0.8000E+01
  -3.900  0.0000E+00  0.8000E+01
  -3.890  0.0000E+00  0.8000E+01
  -3.880  0.0000E+00  0.8000E+01
  -3.870  0.0000E+00  0.8000E+01
  -3.860  0.0000E+00  0.8000E+01
  -3.850  0.0000E+00  0.8000E+01
  -3.840  0.0000E+00  0.8000E+01
  -3.830  0.0000E+00  0.8000E+01
  -3.820  0.0000E+00  0.8000E+01
  -3.810  0.0000E+00  0.8000E+01
  -3.800  0.0000E+00  0.8000E+01
  -3.790  0.0000E+00  0.8000E+01
  -3.780  0.0000E+00  0.8000E+01
  -3.770  0.0000E+00  0.8000E+01
  -3.760  0.0000E+00  0.8000E+01
  -3.750  0.0000E+00  0.8000E+01
  -3.740  0.0000E+00  0.8000E+01
  -3.730  0.0000E+00  0.8000E+01
  -3.720  0.0000E+00  0.8000E+01
  -3.710  0.0000E+00  0.8000E+01
  -3.700  0.0000E+00  0.8000E+01
  -3.690  0.0000E+00  0.8000E+01
  -3.680  0.0000E+00  0.8000E+01
  -3.670  0.0000E+00  0.8000E+01
  -3.660  0.0000E+00  0.8000E+01
  -3.650  0.0000E+00  0.8000E+01
  -3.640  0.0000E+00  0.8000E+01
  -3.630  0.0000E+00  0.8000E+01
  -3.620  0.0000E+00  0.8000E+01
  -3.610  0.0000E+00  0.8000E+01
  -3.600  0.0000E+00  0.8000E+01
  -3.590  0.0000E+00  0.8000E+01
  -3.580  0.0000E+00  0.8000E+01
  -3.570  0.0000E+00  0.8000E+01
  -3.560  0.0000E+00  0.8000E+01
  -3.550  0.0000E+00  0.8000E+01
  -3.540  0.0000E+00  0.8000E+01
  -3.530  0.0000E+00  0.8000E+01
  -3.520  0.0000E+00  0.8000E+01
  -3.510  0.0000E+00  0.8000E+01
  -3.500  0.0000E+00  0.8000E+01
  -3.490  0.0000E+00  0.8000E+01
  -3.480  0.0000E+00  0.8000E+01
  -3.470  0.0000E+00  0.8000E+01
  -3.460  0.0000E+00  0.8000E+01
  -3.450  0.0000E+00  0.8000E+01
  -3.440  0.0000E+00  0.8000E+01
  -3.430  0.0000E+00  0.8000E+01
  -3.420  0.0000E+00  0.8000E+01
  -3.410  0.0000E+00  0.8000E+01
  -3.400  0.0000E+00  0.8000E+01
  -3.390  0.0000E+00  0.8000E+01
  -3.380  0.0000E+00  0.8000E+01
  -3.370  0.0000E+00  0.8000E+01
  -3.360  0.0000E+00  0.8000E+01
  -3.350  0.0000E+00  0.8000E+01
  -3.340  0.0000E+00  0.8000E+01
  -3.330  0.0000E+00  0.8000E+01
  -3.320  0.0000E+00  0.8000E+01
  -3.310  0.0000E+00  0.8000E+01
  -3.300  0.0000E+00  0.8000E+01
  -3.290  0.0000E+00  0.8000E+01
  -3.280  0.0000E+00  0.8000E+01
  -3.270  0.0000E+00  0.8000E+01
  -3.260  0.0000E+00  0.8000E+01
  -3.250  0.0000E+00  0.8000E+01
  -3.240  0.0000E+00  0.8000E+01
  -3.230  0.0000E+00  0.8000E+01
  -3.220  0.0000E+00  0.8000E+01
  -3.210  0.0000E+00  0.8000E+01
  -3.200  0.0000E+00  0.8000E+01
  -3.190  0.0000E+00  0.8000E+01
  -3.180  0.0000E+00  0.8000E+01
  -3.170  0.0000E+00  0.8000E+01
  -3.160  0.0000E+00  0.8000E+01
  -3.150  0.0000E+00  0.8000E+01
  -3.140  0.0000E+00  0.8000E+01
  -3.130  0.0000E+00  0.8000E+01
  -3.120  0.0000E+00  0.8000E+01
  -3.110  0.0000E+00  0.8000E+01
  -3.100  0.0000E+00  0.8000E+01
  -3.090  0.0000E+00  0.8000E+01
  -3.080  0.0000E+00  0.8000E+01
  -3.070  0.0000E+00  0.8000E+01
  -3.060  0.0000E+00  0.8000E+01
  -3.050  0.0000E+00  0.8000E+01
  -3.040  0.0000E+00  0.8000E+01
  -3.030  0.0000E+00  0.8000E+01
  -3.020  0.0000E+00  0.8000E+01
  -3.010  0.0000E+00  0.8000E+01
  -3.000  0.0000E+00  0.8000E+01
  -2.990  0.0000E+00  0.8000E+01
  -2.980  0.0000E+00  0.8000E+01
  -2.970  0.0000E+00  0.8000E+01
  -2.960  0.0000E+00  0.8000E+01
  -2.950  0.0000E+00  0.8000E+01
  -2.940  0.0000E+00  0.8000E+01
  -2.930  0.0000E+00  0.8000E+01
  -2.920  0.0000E+00  0.8000E+01
  -2.910  0.0000E+00  0.8000E+01
  -2.900  0.0000E+00  0.8000E+01
  -2.890  0.0000E+00  0.8000E+01
  -2.880  0.0000E+00  0.8000E+01
  -2.870  0.0000E+00  0.8000E+01
  -2.860  0.0000E+00  0.8000E+01
  -2.850  0.0000E+00  0.8000E+01
  -2.840  0.0000E+00  0.8000E+01
  -2.830  0.0000E+00  0.8000E+01
  -2.820  0.0000E+00  0.8000E+01
  -2.810  0.0000E+00  0.8000E+01
  -2.800  0.0000E+00  0.8000E+01
  -2.790  0.0000E+00  0.8000E+01
  -2.780  0.0000E+00  0.8000E+01
  -2.770  0.0000E+00  0.8000E+01
  -2.760  0.0000E+00  0.8000E+01
  -2.750  0.0000E+00  0.8000E+01
  -2.740  0.0000E+00  0.8000E+01
  -2.730  0.0000E+00  0.8000E+01
  -2.720  0.0000E+00  0.8000E+01
  -2.710  0.0000E+00  0.8000E+01
  -2.700  0.0000E+00  0.8000E+01
  -2.690  0.0000E+00  0.8000E+01
  -2.680  0.0000E+00  0.8000E+01
  -2.670  0.0000E+00  0.8000E+01
  -2.660  0.0000E+00  0.8000E+01
  -2.650  0.0000E+00  0.8000E+01
  -2.640  0.0000E+00  0.8000E+01
  -2.630  0.0000E+00  0.8000E+01
  -2.620  0.0000E+00  0.8000E+01
  -2.610  0.0000E+00  0.8000E+01
  -2.600  0.0000E+00  0.8000E+01
  -2.590  0.0000E+00  0.8000E+01
  -2.580  0.0000E+00  0.8000E+01
  -2.570  0.0000E+00  0.8000E+01
  -2.560  0.0000E+00  0.8000E+01
  -2.550  0.0000E+00  0.8000E+01
  -2.540  0.0000E+00  0.8000E+01
  -2.530  0.0000E+00  0.8000E+01
  -2.520  0.0000E+00  0.8000E+01
  -2.510  0.0000E+00  0.8000E+01
  -2.500  0.0000E+00  0.8000E+01
  -2.490  0.0000E+00  0.8000E+01
  -2.480  0.7728E-02  0.8000E+01
  -2.470  0.1956E+00  0.8001E+01
  -2.460  0.4348E+00  0.8005E+01
  -2.450  0.4861E+00  0.8009E+01
  -2.440  0.4730E+00  0.8014E+01
  -2.430  0.5984E+00  0.8019E+01
  -2.420  0.8296E+00  0.8026E+01
  -2.410  0.1884E+01  0.8038E+01
  -2.400  0.2630E+01  0.8061E+01
  -2.390  0.2455E+01  0.8086E+01
  -2.380  0.2802E+01  0.8112E+01
  -2.370  0.2598E+01  0.8139E+01
  -2.360  0.2499E+01  0.8164E+01
  -2.350  0.2586E+01  0.8189E+01
  -2.340  0.2702E+01  0.8215E+01
  -2.330  0.2604E+01  0.8242E+01
  -2.320  0.2604E+01  0.8268E+01
  -2.310  0.2585E+01  0.8294E+01
  -2.300  0.2573E+01  0.8320E+01
  -2.290  0.2658E+01  0.8346E+01
  -2.280  0.2712E+01  0.8373E+01
  -2.270  0.2697E+01  0.8400E+01
  -2.260  0.2652E+01  0.8427E+01
  -2.250  0.2597E+01  0.8453E+01
  -2.240  0.2635E+01  0.8479E+01
  -2.230  0.2701E+01  0.8506E+01
  -2.220  0.2760E+01  0.8533E+01
  -2.210  0.2789E+01  0.8561E+01
  -2.200  0.2748E+01  0.8589E+01
  -2.190  0.2698E+01  0.8616E+01
  -2.180  0.2694E+01  0.8643E+01
  -2.170  0.2737E+01  0.8670E+01
  -2.160  0.2785E+01  0.8697E+01
  -2.150  0.2787E+01  0.8725E+01
  -2.140  0.2780E+01  0.8753E+01
  -2.130  0.2813E+01  0.8781E+01
  -2.120  0.2863E+01  0.8809E+01
  -2.110  0.3761E+01  0.8841E+01
  -2.100  0.4432E+01  0.8882E+01
  -2.090  0.4314E+01  0.8925E+01
  -2.080  0.4607E+01  0.8970E+01
  -2.070  0.4492E+01  0.9015E+01
  -2.060  0.4354E+01  0.9058E+01
  -2.050  0.4485E+01  0.9103E+01
  -2.040  0.4623E+01  0.9148E+01
  -2.030  0.4608E+01  0.9194E+01
  -2.020  0.4589E+01  0.9240E+01
  -2.010  0.4544E+01  0.9286E+01
  -2.000  0.4527E+01  0.9331E+01
  -1.990  0.4609E+01  0.9376E+01
  -1.980  0.4674E+01  0.9423E+01
  -1.970  0.4692E+01  0.9470E+01
  -1.960  0.4664E+01  0.9517E+01
  -1.950  0.4666E+01  0.9563E+01
  -1.940  0.4747E+01  0.9611E+01
  -1.930  0.4806E+01  0.9658E+01
  -1.920  0.4815E+01  0.9707E+01
  -1.910  0.4848E+01  0.9755E+01
  -1.900  0.4905E+01  0.9804E+01
  -1.890  0.4879E+01  0.9853E+01
  -1.880  0.4880E+01  0.9901E+01
  -1.870  0.4953E+01  0.9951E+01
  -1.860  0.5035E+01  0.1000E+02
  -1.850  0.5048E+01  0.1005E+02
  -1.840  0.5077E+01  0.1010E+02
  -1.830  0.5149E+01  0.1015E+02
  -1.820  0.5223E+01  0.1020E+02
  -1.810  0.5291E+01  0.1026E+02
  -1.800  0.5307E+01  0.1031E+02
  -1.790  0.5341E+01  0.1036E+02
  -1.780  0.5388E+01  0.1042E+02
  -1.770  0.5466E+01  0.1047E+02
  -1.760  0.5547E+01  0.1053E+02
  -1.750  0.5634E+01  0.1058E+02
  -1.740  0.5747E+01  0.1064E+02
  -1.730  0.5933E+01  0.1070E+02
  -1.720  0.6050E+01  0.1076E+02
  -1.710  0.6132E+01  0.1082E+02
  -1.700  0.6303E+01  0.1088E+02
  -1.690  0.6537E+01  0.1094E+02
  -1.680  0.7072E+01  0.1101E+02
  -1.670  0.7955E+01  0.1109E+02
  -1.660  0.7407E+01  0.1116E+02
  -1.650  0.6918E+01  0.1124E+02
  -1.640  0.6617E+01  0.1130E+02
  -1.630  0.6396E+01  0.1137E+02
  -1.620  0.6281E+01  0.1143E+02
  -1.610  0.6279E+01  0.1150E+02
  -1.600  0.6132E+01  0.1156E+02
  -1.590  0.6071E+01  0.1162E+02
  -1.580  0.6022E+01  0.1168E+02
  -1.570  0.6035E+01  0.1174E+02
  -1.560  0.6140E+01  0.1180E+02
  -1.550  0.6007E+01  0.1186E+02
  -1.540  0.5987E+01  0.1192E+02
  -1.530  0.5792E+01  0.1198E+02
  -1.520  0.5651E+01  0.1204E+02
  -1.510  0.5768E+01  0.1209E+02
  -1.500  0.5868E+01  0.1215E+02
  -1.490  0.5945E+01  0.1221E+02
  -1.480  0.6042E+01  0.1227E+02
  -1.470  0.6241E+01  0.1233E+02
  -1.460  0.6491E+01  0.1240E+02
  -1.450  0.6701E+01  0.1246E+02
  -1.440  0.7030E+01  0.1253E+02
  -1.430  0.7737E+01  0.1260E+02
  -1.420  0.8167E+01  0.1268E+02
  -1.410  0.8663E+01  0.1277E+02
  -1.400  0.8588E+01  0.1285E+02
  -1.390  0.8217E+01  0.1294E+02
  -1.380  0.7912E+01  0.1302E+02
  -1.370  0.7739E+01  0.1310E+02
  -1.360  0.7904E+01  0.1317E+02
  -1.350  0.7503E+01  0.1325E+02
  -1.340  0.6850E+01  0.1332E+02
  -1.330  0.6454E+01  0.1339E+02
  -1.320  0.5912E+01  0.1345E+02
  -1.310  0.5802E+01  0.1351E+02
  -1.300  0.5424E+01  0.1357E+02
  -1.290  0.4454E+01  0.1362E+02
  -1.280  0.3672E+01  0.1366E+02
  -1.270  0.2645E+01  0.1369E+02
  -1.260  0.2127E+01  0.1371E+02
  -1.250  0.1951E+01  0.1373E+02
  -1.240  0.1860E+01  0.1375E+02
  -1.230  0.1613E+01  0.1377E+02
  -1.220  0.1395E+01  0.1378E+02
  -1.210  0.1371E+01  0.1380E+02
  -1.200  0.1344E+01  0.1381E+02
  -1.190  0.1313E+01  0.1383E+02
  -1.180  0.1287E+01  0.1384E+02
  -1.170  0.1273E+01  0.1385E+02
  -1.160  0.1261E+01  0.1386E+02
  -1.150  0.1248E+01  0.1388E+02
  -1.140  0.1237E+01  0.1389E+02
  -1.130  0.1222E+01  0.1390E+02
  -1.120  0.1199E+01  0.1391E+02
  -1.110  0.1178E+01  0.1392E+02
  -1.100  0.1165E+01  0.1394E+02
  -1.090  0.1154E+01  0.1395E+02
  -1.080  0.1144E+01  0.1396E+02
  -1.070  0.1133E+01  0.1397E+02
  -1.060  0.1122E+01  0.1398E+02
  -1.050  0.1112E+01  0.1399E+02
  -1.040  0.1101E+01  0.1400E+02
  -1.030  0.1087E+01  0.1402E+02
  -1.020  0.1076E+01  0.1403E+02
  -1.010  0.1067E+01  0.1404E+02
  -1.000  0.1058E+01  0.1405E+02
  -0.990  0.1049E+01  0.1406E+02
  -0.980  0.1040E+01  0.1407E+02
  -0.970  0.1031E+01  0.1408E+02
  -0.960  0.1022E+01  0.1409E+02
  -0.950  0.1012E+01  0.1410E+02
  -0.940  0.1000E+01  0.1411E+02
  -0.930  0.9907E+00  0.1412E+02
  -0.920  0.9859E+00  0.1413E+02
  -0.910  0.9830E+00  0.1414E+02
  -0.900  0.9784E+00  0.1415E+02
  -0.890  0.9709E+00  0.1416E+02
  -0.880  0.9634E+00  0.1417E+02
  -0.870  0.9559E+00  0.1418E+02
  -0.860  0.9482E+00  0.1419E+02
  -0.850  0.9403E+00  0.1420E+02
  -0.840  0.9310E+00  0.1421E+02
  -0.830  0.9212E+00  0.1422E+02
  -0.820  0.9154E+00  0.1422E+02
  -0.810  0.9109E+00  0.1423E+02
  -0.800  0.9064E+00  0.1424E+02
  -0.790  0.9020E+00  0.1425E+02
  -0.780  0.8989E+00  0.1426E+02
  -0.770  0.8968E+00  0.1427E+02
  -0.760  0.8925E+00  0.1428E+02
  -0.750  0.8860E+00  0.1429E+02
  -0.740  0.8795E+00  0.1430E+02
  -0.730  0.8724E+00  0.1431E+02
  -0.720  0.8640E+00  0.1431E+02
  -0.710  0.8581E+00  0.1432E+02
  -0.700  0.8539E+00  0.1433E+02
  -0.690  0.8498E+00  0.1434E+02
  -0.680  0.8457E+00  0.1435E+02
  -0.670  0.9570E+00  0.1436E+02
  -0.660  0.1075E+01  0.1437E+02
  -0.650  0.1082E+01  0.1438E+02
  -0.640  0.1090E+01  0.1439E+02
  -0.630  0.1103E+01  0.1440E+02
  -0.620  0.1132E+01  0.1441E+02
  -0.610  0.1168E+01  0.1442E+02
  -0.600  0.1139E+01  0.1443E+02
  -0.590  0.1073E+01  0.1445E+02
  -0.580  0.1082E+01  0.1446E+02
  -0.570  0.1091E+01  0.1447E+02
  -0.560  0.1099E+01  0.1448E+02
  -0.550  0.1108E+01  0.1449E+02
  -0.540  0.1117E+01  0.1450E+02
  -0.530  0.1125E+01  0.1451E+02
  -0.520  0.1128E+01  0.1452E+02
  -0.510  0.1135E+01  0.1453E+02
  -0.500  0.1148E+01  0.1455E+02
  -0.490  0.1129E+01  0.1456E+02
  -0.480  0.1175E+01  0.1457E+02
  -0.470  0.1365E+01  0.1458E+02
  -0.460  0.1492E+01  0.1460E+02
  -0.450  0.1591E+01  0.1461E+02
  -0.440  0.1683E+01  0.1463E+02
  -0.430  0.1911E+01  0.1464E+02
  -0.420  0.2014E+01  0.1466E+02
  -0.410  0.2038E+01  0.1468E+02
  -0.400  0.2023E+01  0.1471E+02
  -0.390  0.1969E+01  0.1473E+02
  -0.380  0.2010E+01  0.1475E+02
  -0.370  0.1995E+01  0.1477E+02
  -0.360  0.1999E+01  0.1479E+02
  -0.350  0.2031E+01  0.1481E+02
  -0.340  0.2029E+01  0.1483E+02
  -0.330  0.2042E+01  0.1485E+02
  -0.320  0.2249E+01  0.1487E+02
  -0.310  0.2388E+01  0.1489E+02
  -0.300  0.2451E+01  0.1492E+02
  -0.290  0.2507E+01  0.1494E+02
  -0.280  0.2582E+01  0.1497E+02
  -0.270  0.2670E+01  0.1499E+02
  -0.260  0.2672E+01  0.1502E+02
  -0.250  0.2691E+01  0.1505E+02
  -0.240  0.2732E+01  0.1507E+02
  -0.230  0.2735E+01  0.1510E+02
  -0.220  0.2753E+01  0.1513E+02
  -0.210  0.2765E+01  0.1515E+02
  -0.200  0.2784E+01  0.1518E+02
  -0.190  0.2790E+01  0.1521E+02
  -0.180  0.2810E+01  0.1524E+02
  -0.170  0.2827E+01  0.1527E+02
  -0.160  0.2839E+01  0.1529E+02
  -0.150  0.2839E+01  0.1532E+02
  -0.140  0.2896E+01  0.1535E+02
  -0.130  0.3239E+01  0.1538E+02
  -0.120  0.3811E+01  0.1542E+02
  -0.110  0.4080E+01  0.1546E+02
  -0.100  0.4208E+01  0.1550E+02
  -0.090  0.4095E+01  0.1554E+02
  -0.080  0.4687E+01  0.1558E+02
  -0.070  0.5251E+01  0.1563E+02
  -0.060  0.5549E+01  0.1569E+02
  -0.050  0.5547E+01  0.1574E+02
  -0.040  0.5539E+01  0.1580E+02
  -0.030  0.5680E+01  0.1586E+02
  -0.020  0.5797E+01  0.1591E+02
  -0.010  0.5859E+01  0.1597E+02
   0.000  0.5898E+01  0.1603E+02
   0.010  0.5935E+01  0.1609E+02
   0.020  0.6048E+01  0.1615E+02
   0.030  0.6225E+01  0.1621E+02
   0.040  0.6288E+01  0.1627E+02
   0.050  0.6439E+01  0.1634E+02
   0.060  0.6592E+01  0.1640E+02
   0.070  0.6873E+01  0.1647E+02
   0.080  0.7248E+01  0.1654E+02
   0.090  0.7566E+01  0.1661E+02
   0.100  0.7824E+01  0.1669E+02
   0.110  0.8180E+01  0.1677E+02
   0.120  0.8503E+01  0.1686E+02
   0.130  0.8306E+01  0.1694E+02
   0.140  0.7714E+01  0.1702E+02
   0.150  0.7126E+01  0.1709E+02
   0.160  0.6668E+01  0.1716E+02
   0.170  0.6697E+01  0.1723E+02
   0.180  0.7049E+01  0.1730E+02
   0.190  0.7082E+01  0.1737E+02
   0.200  0.6915E+01  0.1744E+02
   0.210  0.6543E+01  0.1751E+02
   0.220  0.6045E+01  0.1757E+02
   0.230  0.5243E+01  0.1763E+02
   0.240  0.4678E+01  0.1768E+02
   0.250  0.4287E+01  0.1772E+02
   0.260  0.3913E+01  0.1777E+02
   0.270  0.3885E+01  0.1780E+02
   0.280  0.3856E+01  0.1784E+02
   0.290  0.3831E+01  0.1788E+02
   0.300  0.3809E+01  0.1792E+02
   0.310  0.3791E+01  0.1796E+02
   0.320  0.3812E+01  0.1800E+02
   0.330  0.3838E+01  0.1803E+02
   0.340  0.3854E+01  0.1807E+02
   0.350  0.3872E+01  0.1811E+02
   0.360  0.3890E+01  0.1815E+02
   0.370  0.3916E+01  0.1819E+02
   0.380  0.3943E+01  0.1823E+02
   0.390  0.3986E+01  0.1827E+02
   0.400  0.4093E+01  0.1831E+02
   0.410  0.4222E+01  0.1835E+02
   0.420  0.4350E+01  0.1839E+02
   0.430  0.4507E+01  0.1844E+02
   0.440  0.4659E+01  0.1848E+02
   0.450  0.4616E+01  0.1853E+02
   0.460  0.4590E+01  0.1858E+02
   0.470  0.4289E+01  0.1862E+02
   0.480  0.4047E+01  0.1866E+02
   0.490  0.3946E+01  0.1870E+02
   0.500  0.3760E+01  0.1874E+02
   0.510  0.3479E+01  0.1878E+02
   0.520  0.3359E+01  0.1881E+02
   0.530  0.3313E+01  0.1884E+02
   0.540  0.3296E+01  0.1888E+02
   0.550  0.3265E+01  0.1891E+02
   0.560  0.3216E+01  0.1894E+02
   0.570  0.3229E+01  0.1897E+02
   0.580  0.3359E+01  0.1901E+02
   0.590  0.3312E+01  0.1904E+02
   0.600  0.3283E+01  0.1907E+02
   0.610  0.3296E+01  0.1911E+02
   0.620  0.3332E+01  0.1914E+02
   0.630  0.3415E+01  0.1917E+02
   0.640  0.3551E+01  0.1921E+02
   0.650  0.3642E+01  0.1925E+02
   0.660  0.3693E+01  0.1928E+02
   0.670  0.3738E+01  0.1932E+02
   0.680  0.4043E+01  0.1936E+02
   0.690  0.4454E+01  0.1940E+02
   0.700  0.5004E+01  0.1945E+02
   0.710  0.5071E+01  0.1950E+02
   0.720  0.5376E+01  0.1955E+02
   0.730  0.5457E+01  0.1960E+02
   0.740  0.5708E+01  0.1966E+02
   0.750  0.5708E+01  0.1972E+02
   0.760  0.5238E+01  0.1977E+02
   0.770  0.5253E+01  0.1982E+02
   0.780  0.5197E+01  0.1988E+02
   0.790  0.5322E+01  0.1993E+02
   0.800  0.5114E+01  0.1998E+02
   0.810  0.5070E+01  0.2003E+02
   0.820  0.4922E+01  0.2008E+02
   0.830  0.5070E+01  0.2013E+02
   0.840  0.5027E+01  0.2018E+02
   0.850  0.5135E+01  0.2023E+02
   0.860  0.5275E+01  0.2028E+02
   0.870  0.5390E+01  0.2034E+02
   0.880  0.5474E+01  0.2039E+02
   0.890  0.5664E+01  0.2045E+02
   0.900  0.5862E+01  0.2051E+02
   0.910  0.5834E+01  0.2056E+02
   0.920  0.5788E+01  0.2062E+02
   0.930  0.5640E+01  0.2068E+02
   0.940  0.5484E+01  0.2074E+02
   0.950  0.5398E+01  0.2079E+02
   0.960  0.5336E+01  0.2084E+02
   0.970  0.5296E+01  0.2090E+02
   0.980  0.5297E+01  0.2095E+02
   0.990  0.5319E+01  0.2100E+02
   1.000  0.5337E+01  0.2106E+02
   1.010  0.5368E+01  0.2111E+02
   1.020  0.5425E+01  0.2116E+02
   1.030  0.5481E+01  0.2122E+02
   1.040  0.5586E+01  0.2127E+02
   1.050  0.5633E+01  0.2133E+02
   1.060  0.5653E+01  0.2139E+02
   1.070  0.5689E+01  0.2144E+02
   1.080  0.5773E+01  0.2150E+02
   1.090  0.5864E+01  0.2156E+02
   1.100  0.6030E+01  0.2162E+02
   1.110  0.6191E+01  0.2168E+02
   1.120  0.6444E+01  0.2174E+02
   1.130  0.6477E+01  0.2181E+02
   1.140  0.6551E+01  0.2187E+02
   1.150  0.6481E+01  0.2194E+02
   1.160  0.6306E+01  0.2200E+02
   1.170  0.6435E+01  0.2206E+02
   1.180  0.6535E+01  0.2213E+02
   1.190  0.6671E+01  0.2219E+02
   1.200  0.6684E+01  0.2226E+02
   1.210  0.6596E+01  0.2233E+02
   1.220  0.6400E+01  0.2239E+02
   1.230  0.6194E+01  0.2246E+02
   1.240  0.5901E+01  0.2252E+02
   1.250  0.5727E+01  0.2257E+02
   1.260  0.5605E+01  0.2263E+02
   1.270  0.5539E+01  0.2269E+02
   1.280  0.5476E+01  0.2274E+02
   1.290  0.5503E+01  0.2280E+02
   1.300  0.5480E+01  0.2285E+02
   1.310  0.5485E+01  0.2291E+02
   1.320  0.5519E+01  0.2296E+02
   1.330  0.5367E+01  0.2302E+02
   1.340  0.5283E+01  0.2307E+02
   1.350  0.5124E+01  0.2312E+02
   1.360  0.5184E+01  0.2317E+02
   1.370  0.5233E+01  0.2322E+02
   1.380  0.5413E+01  0.2328E+02
   1.390  0.5499E+01  0.2333E+02
   1.400  0.5633E+01  0.2339E+02
   1.410  0.5522E+01  0.2344E+02
   1.420  0.5346E+01  0.2350E+02
   1.430  0.5263E+01  0.2355E+02
   1.440  0.5268E+01  0.2360E+02
   1.450  0.5349E+01  0.2366E+02
   1.460  0.5434E+01  0.2371E+02
   1.470  0.5584E+01  0.2377E+02
   1.480  0.5705E+01  0.2382E+02
   1.490  0.5888E+01  0.2388E+02
   1.500  0.6136E+01  0.2394E+02
   1.510  0.6347E+01  0.2400E+02
   1.520  0.6497E+01  0.2407E+02
   1.530  0.6540E+01  0.2413E+02
   1.540  0.6555E+01  0.2420E+02
   1.550  0.6149E+01  0.2426E+02
   1.560  0.5534E+01  0.2432E+02
   1.570  0.5123E+01  0.2437E+02
   1.580  0.5275E+01  0.2443E+02
   1.590  0.5382E+01  0.2448E+02
   1.600  0.5546E+01  0.2453E+02
   1.610  0.5844E+01  0.2459E+02
   1.620  0.6165E+01  0.2465E+02
   1.630  0.6598E+01  0.2472E+02
   1.640  0.6317E+01  0.2478E+02
   1.650  0.6010E+01  0.2484E+02
   1.660  0.5886E+01  0.2490E+02
   1.670  0.5580E+01  0.2496E+02
   1.680  0.5575E+01  0.2502E+02
   1.690  0.5736E+01  0.2507E+02
   1.700  0.5770E+01  0.2513E+02
   1.710  0.5716E+01  0.2519E+02
   1.720  0.5657E+01  0.2525E+02
   1.730  0.5581E+01  0.2530E+02
   1.740  0.5622E+01  0.2536E+02
   1.750  0.5838E+01  0.2542E+02
   1.760  0.6048E+01  0.2547E+02
   1.770  0.6468E+01  0.2554E+02
   1.780  0.6433E+01  0.2560E+02
   1.790  0.6256E+01  0.2567E+02
   1.800  0.6091E+01  0.2573E+02
   1.810  0.5846E+01  0.2579E+02
   1.820  0.5719E+01  0.2584E+02
   1.830  0.5527E+01  0.2590E+02
   1.840  0.5334E+01  0.2596E+02
   1.850  0.5142E+01  0.2601E+02
   1.860  0.4927E+01  0.2606E+02
   1.870  0.4405E+01  0.2610E+02
   1.880  0.4371E+01  0.2615E+02
   1.890  0.4373E+01  0.2619E+02
   1.900  0.4284E+01  0.2624E+02
   1.910  0.4268E+01  0.2628E+02
   1.920  0.4247E+01  0.2632E+02
   1.930  0.4182E+01  0.2636E+02
   1.940  0.4187E+01  0.2641E+02
   1.950  0.3656E+01  0.2644E+02
   1.960  0.3442E+01  0.2648E+02
   1.970  0.3231E+01  0.2651E+02
   1.980  0.3170E+01  0.2654E+02
   1.990  0.3186E+01  0.2658E+02
   2.000  0.3201E+01  0.2661E+02
   2.010  0.3215E+01  0.2664E+02
   2.020  0.3229E+01  0.2667E+02
   2.030  0.3243E+01  0.2670E+02
   2.040  0.3258E+01  0.2674E+02
   2.050  0.3275E+01  0.2677E+02
   2.060  0.3296E+01  0.2680E+02
   2.070  0.3323E+01  0.2684E+02
   2.080  0.3352E+01  0.2687E+02
   2.090  0.3376E+01  0.2690E+02
   2.100  0.3397E+01  0.2694E+02
   2.110  0.3416E+01  0.2697E+02
   2.120  0.3437E+01  0.2701E+02
   2.130  0.3458E+01  0.2704E+02
   2.140  0.3493E+01  0.2707E+02
   2.150  0.3532E+01  0.2711E+02
   2.160  0.3565E+01  0.2715E+02
   2.170  0.3595E+01  0.2718E+02
   2.180  0.3627E+01  0.2722E+02
   2.190  0.3666E+01  0.2725E+02
   2.200  0.3703E+01  0.2729E+02
   2.210  0.3751E+01  0.2733E+02
   2.220  0.3807E+01  0.2737E+02
   2.230  0.3855E+01  0.2740E+02
   2.240  0.3901E+01  0.2744E+02
   2.250  0.3944E+01  0.2748E+02
   2.260  0.3994E+01  0.2752E+02
   2.270  0.4088E+01  0.2756E+02
   2.280  0.4188E+01  0.2760E+02
   2.290  0.4276E+01  0.2765E+02
   2.300  0.4367E+01  0.2769E+02
   2.310  0.4455E+01  0.2773E+02
   2.320  0.4544E+01  0.2778E+02
   2.330  0.4719E+01  0.2782E+02
   2.340  0.5028E+01  0.2787E+02
   2.350  0.5170E+01  0.2792E+02
   2.360  0.5528E+01  0.2798E+02
   2.370  0.5635E+01  0.2803E+02
   2.380  0.5576E+01  0.2809E+02
   2.390  0.5395E+01  0.2814E+02
   2.400  0.5357E+01  0.2820E+02
   2.410  0.5333E+01  0.2825E+02
   2.420  0.5750E+01  0.2831E+02
   2.430  0.5580E+01  0.2836E+02
   2.440  0.5201E+01  0.2842E+02
   2.450  0.4853E+01  0.2847E+02
   2.460  0.4810E+01  0.2852E+02
   2.470  0.4499E+01  0.2856E+02
   2.480  0.4539E+01  0.2861E+02
   2.490  0.4474E+01  0.2865E+02
   2.500  0.4516E+01  0.2870E+02
   2.510  0.4745E+01  0.2874E+02
   2.520  0.4811E+01  0.2879E+02
   2.530  0.4648E+01  0.2884E+02
   2.540  0.4560E+01  0.2889E+02
   2.550  0.4511E+01  0.2893E+02
   2.560  0.5312E+01  0.2898E+02
   2.570  0.4605E+01  0.2903E+02
   2.580  0.4553E+01  0.2907E+02
   2.590  0.5411E+01  0.2912E+02
   2.600  0.3373E+01  0.2916E+02
   2.610  0.3360E+01  0.2919E+02
   2.620  0.3567E+01  0.2923E+02
   2.630  0.3271E+01  0.2926E+02
   2.640  0.3212E+01  0.2930E+02
   2.650  0.3189E+01  0.2933E+02
   2.660  0.3178E+01  0.2936E+02
   2.670  0.3212E+01  0.2939E+02
   2.680  0.3336E+01  0.2942E+02
   2.690  0.3604E+01  0.2946E+02
   2.700  0.3944E+01  0.2950E+02
   2.710  0.3841E+01  0.2953E+02
   2.720  0.4525E+01  0.2958E+02
   2.730  0.4622E+01  0.2962E+02
   2.740  0.5193E+01  0.2967E+02
   2.750  0.5832E+01  0.2973E+02
   2.760  0.5139E+01  0.2979E+02
   2.770  0.5078E+01  0.2984E+02
   2.780  0.4943E+01  0.2989E+02
   2.790  0.5007E+01  0.2994E+02
   2.800  0.4909E+01  0.2999E+02
   2.810  0.4955E+01  0.3004E+02
   2.820  0.4917E+01  0.3009E+02
   2.830  0.4798E+01  0.3014E+02
   2.840  0.4927E+01  0.3019E+02
   2.850  0.5002E+01  0.3024E+02
   2.860  0.5325E+01  0.3029E+02
   2.870  0.5570E+01  0.3034E+02
   2.880  0.5823E+01  0.3040E+02
   2.890  0.6214E+01  0.3046E+02
   2.900  0.7392E+01  0.3053E+02
   2.910  0.6922E+01  0.3060E+02
   2.920  0.6493E+01  0.3067E+02
   2.930  0.6398E+01  0.3073E+02
   2.940  0.6257E+01  0.3079E+02
   2.950  0.6226E+01  0.3086E+02
   2.960  0.6060E+01  0.3092E+02
   2.970  0.5913E+01  0.3098E+02
   2.980  0.5805E+01  0.3104E+02
   2.990  0.5547E+01  0.3109E+02
   3.000  0.5534E+01  0.3115E+02
   3.010  0.5748E+01  0.3120E+02
   3.020  0.7345E+01  0.3127E+02
   3.030  0.7158E+01  0.3134E+02
   3.040  0.7236E+01  0.3141E+02
   3.050  0.7792E+01  0.3149E+02
   3.060  0.8224E+01  0.3157E+02
   3.070  0.8805E+01  0.3165E+02
   3.080  0.8828E+01  0.3174E+02
   3.090  0.8574E+01  0.3183E+02
   3.100  0.8728E+01  0.3192E+02
   3.110  0.8707E+01  0.3200E+02
   3.120  0.8580E+01  0.3209E+02
   3.130  0.8261E+01  0.3217E+02
   3.140  0.8361E+01  0.3226E+02
   3.150  0.8602E+01  0.3234E+02
   3.160  0.9037E+01  0.3243E+02
   3.170  0.9592E+01  0.3252E+02
   3.180  0.1028E+02  0.3262E+02
   3.190  0.1146E+02  0.3273E+02
   3.200  0.1374E+02  0.3285E+02
   3.210  0.1330E+02  0.3300E+02
   3.220  0.1473E+02  0.3314E+02
   3.230  0.1231E+02  0.3327E+02
   3.240  0.1230E+02  0.3339E+02
   3.250  0.1208E+02  0.3351E+02
   3.260  0.1125E+02  0.3363E+02
   3.270  0.1087E+02  0.3374E+02
   3.280  0.1046E+02  0.3385E+02
   3.290  0.1041E+02  0.3395E+02
   3.300  0.1044E+02  0.3405E+02
   3.310  0.1042E+02  0.3416E+02
   3.320  0.1077E+02  0.3426E+02
   3.330  0.1153E+02  0.3438E+02
   3.340  0.1071E+02  0.3449E+02
   3.350  0.9815E+01  0.3459E+02
   3.360  0.8718E+01  0.3468E+02
   3.370  0.7397E+01  0.3476E+02
   3.380  0.6828E+01  0.3483E+02
   3.390  0.6522E+01  0.3490E+02
   3.400  0.6105E+01  0.3496E+02
   3.410  0.6022E+01  0.3502E+02
   3.420  0.5490E+01  0.3508E+02
   3.430  0.3962E+01  0.3513E+02
   3.440  0.3182E+01  0.3516E+02
   3.450  0.2421E+01  0.3519E+02
   3.460  0.2042E+01  0.3521E+02
   3.470  0.2030E+01  0.3523E+02
   3.480  0.2001E+01  0.3525E+02
   3.490  0.2014E+01  0.3527E+02
   3.500  0.2027E+01  0.3529E+02
   3.510  0.2030E+01  0.3531E+02
   3.520  0.2006E+01  0.3533E+02
   3.530  0.2007E+01  0.3535E+02
   3.540  0.2005E+01  0.3537E+02
   3.550  0.1983E+01  0.3539E+02
   3.560  0.1962E+01  0.3541E+02
   3.570  0.1920E+01  0.3543E+02
   3.580  0.1953E+01  0.3545E+02
   3.590  0.1936E+01  0.3547E+02
   3.600  0.1896E+01  0.3549E+02
   3.610  0.1884E+01  0.3551E+02
   3.620  0.1922E+01  0.3553E+02
   3.630  0.1913E+01  0.3555E+02
   3.640  0.1883E+01  0.3557E+02
   3.650  0.1888E+01  0.3559E+02
   3.660  0.1930E+01  0.3561E+02
   3.670  0.1910E+01  0.3562E+02
   3.680  0.1857E+01  0.3564E+02
   3.690  0.1889E+01  0.3566E+02
   3.700  0.1880E+01  0.3568E+02
   3.710  0.1820E+01  0.3570E+02
   3.720  0.1845E+01  0.3572E+02
   3.730  0.1824E+01  0.3574E+02
   3.740  0.1767E+01  0.3575E+02
   3.750  0.1783E+01  0.3577E+02
   3.760  0.1852E+01  0.3579E+02
   3.770  0.1869E+01  0.3581E+02
   3.780  0.1832E+01  0.3583E+02
   3.790  0.1810E+01  0.3585E+02
   3.800  0.1776E+01  0.3586E+02
   3.810  0.1846E+01  0.3588E+02
   3.820  0.1776E+01  0.3590E+02
   3.830  0.1704E+01  0.3592E+02
   3.840  0.1751E+01  0.3594E+02
   3.850  0.1500E+01  0.3595E+02
   3.860  0.1534E+01  0.3597E+02
   3.870  0.1064E+01  0.3598E+02
   3.880  0.7624E+00  0.3599E+02
   3.890  0.5981E+00  0.3600E+02
   3.900  0.1402E+00  0.3600E+02
   3.910  0.0000E+00  0.3600E+02
   3.920  0.0000E+00  0.3600E+02
   3.930  0.0000E+00  0.3600E+02
   3.940  0.0000E+00  0.3600E+02
   3.950  0.0000E+00  0.3600E+02
   3.960  0.0000E+00  0.3600E+02
   3.970  0.0000E+00  0.3600E+02
   3.980  0.0000E+00  0.3600E+02
   3.990  0.0000E+00  0.3600E+02
   4.000  0.0000E+00  0.3600E+02
   4.010  0.0000E+00  0.3600E+02
   4.020  0.0000E+00  0.3600E+02
   4.030  0.0000E+00  0.3600E+02
   4.040  0.0000E+00  0.3600E+02
   4.050  0.0000E+00  0.3600E+02
   4.060  0.0000E+00  0.3600E+02
   4.070  0.0000E+00  0.3600E+02
   4.080  0.0000E+00  0.3600E+02
   4.090  0.0000E+00  0.3600E+02
   4.100  0.0000E+00  0.3600E+02
   4.110  0.0000E+00  0.3600E+02
   4.120  0.0000E+00  0.3600E+02
   4.130  0.0000E+00  0.3600E+02
   4.140  0.0000E+00  0.3600E+02
   4.150  0.0000E+00  0.3600E+02
   4.160  0.0000E+00  0.3600E+02
   4.170  0.0000E+00  0.3600E+02
   4.180  0.0000E+00  0.3600E+02
   4.190  0.0000E+00  0.3600E+02
   4.200  0.0000E+00  0.3600E+02
   4.210  0.0000E+00  0.3600E+02
   4.220  0.0000E+00  0.3600E+02
   4.230  0.0000E+00  0.3600E+02
   4.240  0.0000E+00  0.3600E+02
   4.250  0.0000E+00  0.3600E+02
   4.260  0.0000E+00  0.3600E+02
   4.270  0.0000E+00  0.3600E+02
   4.280  0.0000E+00  0.3600E+02
   4.290  0.0000E+00  0.3600E+02
   4.300  0.0000E+00  0.3600E+02
   4.310  0.0000E+00  0.3600E+02
   4.320  0.0000E+00  0.3600E+02
   4.330  0.0000E+00  0.3600E+02
   4.340  0.0000E+00  0.3600E+02
   4.350  0.0000E+00  0.3600E+02
   4.360  0.0000E+00  0.3600E+02
   4.370  0.0000E+00  0.3600E+02
   4.380  0.0000E+00  0.3600E+02
   4.390  0.0000E+00  0.3600E+02
   4.400  0.0000E+00  0.3600E+02
   4.410  0.0000E+00  0.3600E+02
   4.420  0.0000E+00  0.3600E+02
   4.430  0.0000E+00  0.3600E+02
   4.440  0.0000E+00  0.3600E+02
   4.450  0.0000E+00  0.3600E+02
   4.460  0.0000E+00  0.3600E+02
   4.470  0.0000E+00  0.3600E+02
   4.480  0.0000E+00  0.3600E+02
   4.490  0.0000E+00  0.3600E+02
   4.500  0.0000E+00  0.3600E+02
   4.510  0.0000E+00  0.3600E+02
   4.520  0.0000E+00  0.3600E+02
   4.530  0.0000E+00  0.3600E+02
   4.540  0.0000E+00  0.3600E+02
   4.550  0.0000E+00  0.3600E+02
   4.560  0.0000E+00  0.3600E+02
   4.570  0.0000E+00  0.3600E+02
   4.580  0.0000E+00  0.3600E+02
   4.590  0.0000E+00  0.3600E+02
   4.600  0.0000E+00  0.3600E+02
   4.610  0.0000E+00  0.3600E+02
   4.620  0.0000E+00  0.3600E+02
   4.630  0.0000E+00  0.3600E+02
   4.640  0.0000E+00  0.3600E+02
   4.650  0.0000E+00  0.3600E+02
   4.660  0.0000E+00  0.3600E+02
   4.670  0.0000E+00  0.3600E+02
   4.680  0.0000E+00  0.3600E+02
   4.690  0.0000E+00  0.3600E+02
   4.700  0.0000E+00  0.3600E+02
   4.710  0.0000E+00  0.3600E+02
   4.720  0.0000E+00  0.3600E+02
   4.730  0.0000E+00  0.3600E+02
   4.740  0.0000E+00  0.3600E+02
   4.750  0.0000E+00  0.3600E+02
   4.760  0.0000E+00  0.3600E+02
   4.770  0.0000E+00  0.3600E+02
   4.780  0.0000E+00  0.3600E+02
   4.790  0.0000E+00  0.3600E+02
   4.800  0.0000E+00  0.3600E+02
   4.810  0.0000E+00  0.3600E+02
   4.820  0.0000E+00  0.3600E+02
   4.830  0.0000E+00  0.3600E+02
   4.840  0.0000E+00  0.3600E+02
   4.850  0.0000E+00  0.3600E+02
   4.860  0.0000E+00  0.3600E+02
   4.870  0.0000E+00  0.3600E+02
   4.880  0.0000E+00  0.3600E+02
   4.890  0.0000E+00  0.3600E+02
   4.900  0.0000E+00  0.3600E+02
   4.910  0.0000E+00  0.3600E+02
   4.920  0.0000E+00  0.3600E+02
   4.930  0.0000E+00  0.3600E+02
   4.940  0.0000E+00  0.3600E+02
   4.950  0.0000E+00  0.3600E+02
   4.960  0.0000E+00  0.3600E+02
   4.970  0.0000E+00  0.3600E+02
   4.980  0.0000E+00  0.3600E+02
   4.990  0.0000E+00  0.3600E+02
   5.000  0.0000E+00  0.3600E+02
   5.010  0.0000E+00  0.3600E+02
   5.020  0.0000E+00  0.3600E+02
   5.030  0.0000E+00  0.3600E+02
   5.040  0.0000E+00  0.3600E+02
   5.050  0.0000E+00  0.3600E+02
   5.060  0.0000E+00  0.3600E+02
   5.070  0.0000E+00  0.3600E+02
   5.080  0.0000E+00  0.3600E+02
   5.090  0.0000E+00  0.3600E+02
   5.100  0.0000E+00  0.3600E+02
   5.110  0.0000E+00  0.3600E+02
   5.120  0.0000E+00  0.3600E+02
   5.130  0.0000E+00  0.3600E+02
   5.140  0.0000E+00  0.3600E+02
   5.150  0.0000E+00  0.3600E+02
   5.160  0.0000E+00  0.3600E+02
   5.170  0.0000E+00  0.3600E+02
   5.180  0.0000E+00  0.3600E+02
   5.190  0.0000E+00  0.3600E+02
   5.200  0.0000E+00  0.3600E+02
   5.210  0.0000E+00  0.3600E+02
   5.220  0.0000E+00  0.3600E+02
   5.230  0.0000E+00  0.3600E+02
   5.240  0.0000E+00  0.3600E+02
   5.250  0.0000E+00  0.3600E+02
   5.260  0.0000E+00  0.3600E+02
   5.270  0.0000E+00  0.3600E+02
   5.280  0.0000E+00  0.3600E+02
   5.290  0.0000E+00  0.3600E+02
   5.300  0.0000E+00  0.3600E+02
   5.310  0.0000E+00  0.3600E+02
   5.320  0.0000E+00  0.3600E+02
   5.330  0.0000E+00  0.3600E+02
   5.340  0.9036E-01  0.3600E+02
   5.350  0.2512E+00  0.3600E+02
   5.360  0.2663E+00  0.3600E+02
   5.370  0.4874E+00  0.3601E+02
   5.380  0.5569E+00  0.3601E+02
   5.390  0.5530E+00  0.3602E+02
   5.400  0.6275E+00  0.3603E+02
   5.410  0.5884E+00  0.3603E+02
   5.420  0.5758E+00  0.3604E+02
   5.430  0.6236E+00  0.3604E+02
   5.440  0.6363E+00  0.3605E+02
   5.450  0.6150E+00  0.3606E+02
   5.460  0.6473E+00  0.3606E+02
   5.470  0.6711E+00  0.3607E+02
   5.480  0.6477E+00  0.3608E+02
   5.490  0.6544E+00  0.3608E+02
   5.500  0.6849E+00  0.3609E+02
   5.510  0.6965E+00  0.3610E+02
   5.520  0.7053E+00  0.3610E+02
   5.530  0.7293E+00  0.3611E+02
   5.540  0.7414E+00  0.3612E+02
   5.550  0.7623E+00  0.3612E+02
   5.560  0.9189E+00  0.3613E+02
   5.570  0.1074E+01  0.3614E+02
   5.580  0.1281E+01  0.3615E+02
   5.590  0.1627E+01  0.3617E+02
   5.600  0.1732E+01  0.3619E+02
   5.610  0.1861E+01  0.3620E+02
   5.620  0.1796E+01  0.3622E+02
   5.630  0.1879E+01  0.3624E+02
   5.640  0.1971E+01  0.3626E+02
   5.650  0.1988E+01  0.3628E+02
   5.660  0.2197E+01  0.3630E+02
   5.670  0.2570E+01  0.3633E+02
   5.680  0.2871E+01  0.3635E+02
   5.690  0.3119E+01  0.3638E+02
   5.700  0.3324E+01  0.3642E+02
   5.710  0.3542E+01  0.3645E+02
   5.720  0.3842E+01  0.3649E+02
   5.730  0.4147E+01  0.3653E+02
   5.740  0.4412E+01  0.3657E+02
   5.750  0.4227E+01  0.3661E+02
   5.760  0.3971E+01  0.3665E+02
   5.770  0.3772E+01  0.3669E+02
   5.780  0.3758E+01  0.3673E+02
   5.790  0.3980E+01  0.3677E+02
   5.800  0.4481E+01  0.3681E+02
   5.810  0.4131E+01  0.3685E+02
   5.820  0.3847E+01  0.3689E+02
   5.830  0.3440E+01  0.3693E+02
   5.840  0.3119E+01  0.3696E+02
   5.850  0.2923E+01  0.3699E+02
   5.860  0.2775E+01  0.3702E+02
   5.870  0.2660E+01  0.3705E+02
   5.880  0.2560E+01  0.3707E+02
   5.890  0.2480E+01  0.3710E+02
   5.900  0.2395E+01  0.3712E+02
   5.910  0.2311E+01  0.3715E+02
   5.920  0.2227E+01  0.3717E+02
   5.930  0.2161E+01  0.3719E+02
   5.940  0.2101E+01  0.3721E+02
   5.950  0.2049E+01  0.3723E+02
   5.960  0.1994E+01  0.3725E+02
   5.970  0.1940E+01  0.3727E+02
   5.980  0.1893E+01  0.3729E+02
   5.990  0.1860E+01  0.3731E+02
   6.000  0.1830E+01  0.3733E+02
   6.010  0.1797E+01  0.3735E+02
   6.020  0.1755E+01  0.3736E+02
   6.030  0.1713E+01  0.3738E+02
   6.040  0.1679E+01  0.3740E+02
   6.050  0.1653E+01  0.3741E+02
   6.060  0.1630E+01  0.3743E+02
   6.070  0.1605E+01  0.3745E+02
   6.080  0.1579E+01  0.3746E+02
   6.090  0.1551E+01  0.3748E+02
   6.100  0.1524E+01  0.3749E+02
   6.110  0.1497E+01  0.3751E+02
   6.120  0.1474E+01  0.3752E+02
   6.130  0.1454E+01  0.3754E+02
   6.140  0.1436E+01  0.3755E+02
   6.150  0.1418E+01  0.3757E+02
   6.160  0.1396E+01  0.3758E+02
   6.170  0.1377E+01  0.3760E+02
   6.180  0.1359E+01  0.3761E+02
   6.190  0.1341E+01  0.3762E+02
   6.200  0.1323E+01  0.3764E+02
   6.210  0.1308E+01  0.3765E+02
   6.220  0.1295E+01  0.3766E+02
   6.230  0.1281E+01  0.3768E+02
   6.240  0.1266E+01  0.3769E+02
   6.250  0.1251E+01  0.3770E+02
   6.260  0.1239E+01  0.3771E+02
   6.270  0.1226E+01  0.3773E+02
   6.280  0.1213E+01  0.3774E+02
   6.290  0.1198E+01  0.3775E+02
   6.300  0.1184E+01  0.3776E+02
   6.310  0.1172E+01  0.3777E+02
   6.320  0.1161E+01  0.3778E+02
   6.330  0.1149E+01  0.3780E+02
   6.340  0.1135E+01  0.3781E+02
   6.350  0.1123E+01  0.3782E+02
   6.360  0.1114E+01  0.3783E+02
   6.370  0.1106E+01  0.3784E+02
   6.380  0.1096E+01  0.3785E+02
   6.390  0.1085E+01  0.3786E+02
   6.400  0.1074E+01  0.3787E+02
   6.410  0.1067E+01  0.3788E+02
   6.420  0.1059E+01  0.3790E+02
   6.430  0.1051E+01  0.3791E+02
   6.440  0.1042E+01  0.3792E+02
   6.450  0.1033E+01  0.3793E+02
   6.460  0.1027E+01  0.3794E+02
   6.470  0.1018E+01  0.3795E+02
   6.480  0.1010E+01  0.3796E+02
   6.490  0.1000E+01  0.3797E+02
   6.500  0.9908E+00  0.3798E+02
   6.510  0.9819E+00  0.3799E+02
   6.520  0.9747E+00  0.3800E+02
   6.530  0.9677E+00  0.3801E+02
   6.540  0.9589E+00  0.3802E+02
   6.550  0.9500E+00  0.3803E+02
   6.560  0.9427E+00  0.3804E+02
   6.570  0.9379E+00  0.3805E+02
   6.580  0.9329E+00  0.3805E+02
   6.590  0.9280E+00  0.3806E+02
   6.600  0.9218E+00  0.3807E+02
   6.610  0.9150E+00  0.3808E+02
   6.620  0.9099E+00  0.3809E+02
   6.630  0.9067E+00  0.3810E+02
   6.640  0.9012E+00  0.3811E+02
   6.650  0.8952E+00  0.3812E+02
   6.660  0.8874E+00  0.3813E+02
   6.670  0.8804E+00  0.3814E+02
   6.680  0.8744E+00  0.3814E+02
   6.690  0.8689E+00  0.3815E+02
   6.700  0.8632E+00  0.3816E+02
   6.710  0.8572E+00  0.3817E+02
   6.720  0.8505E+00  0.3818E+02
   6.730  0.8439E+00  0.3819E+02
   6.740  0.8380E+00  0.3820E+02
   6.750  0.8340E+00  0.3820E+02
   6.760  0.8304E+00  0.3821E+02
   6.770  0.8242E+00  0.3822E+02
   6.780  0.8186E+00  0.3823E+02
   6.790  0.8151E+00  0.3824E+02
   6.800  0.8125E+00  0.3825E+02
   6.810  0.8099E+00  0.3825E+02
   6.820  0.8106E+00  0.3826E+02
   6.830  0.8054E+00  0.3827E+02
   6.840  0.8015E+00  0.3828E+02
   6.850  0.7964E+00  0.3829E+02
   6.860  0.7894E+00  0.3829E+02
   6.870  0.7836E+00  0.3830E+02
   6.880  0.7782E+00  0.3831E+02
   6.890  0.7731E+00  0.3832E+02
   6.900  0.7679E+00  0.3833E+02
   6.910  0.7636E+00  0.3833E+02
   6.920  0.7602E+00  0.3834E+02
   6.930  0.7570E+00  0.3835E+02
   6.940  0.7535E+00  0.3836E+02
   6.950  0.7499E+00  0.3836E+02
   6.960  0.7458E+00  0.3837E+02
   6.970  0.7408E+00  0.3838E+02
   6.980  0.7352E+00  0.3839E+02
   6.990  0.7330E+00  0.3839E+02
   7.000  0.7320E+00  0.3840E+02
   7.010  0.7309E+00  0.3841E+02
   7.020  0.7268E+00  0.3841E+02
   7.030  0.7254E+00  0.3842E+02
   7.040  0.7240E+00  0.3843E+02
   7.050  0.7220E+00  0.3844E+02
   7.060  0.7184E+00  0.3844E+02
   7.070  0.7136E+00  0.3845E+02
   7.080  0.7088E+00  0.3846E+02
   7.090  0.7040E+00  0.3846E+02
   7.100  0.6991E+00  0.3847E+02
   7.110  0.6990E+00  0.3848E+02
   7.120  0.7621E+00  0.3849E+02
   7.130  0.8502E+00  0.3849E+02
   7.140  0.9395E+00  0.3850E+02
   7.150  0.1039E+01  0.3851E+02
   7.160  0.1209E+01  0.3852E+02
   7.170  0.1366E+01  0.3854E+02
   7.180  0.1340E+01  0.3855E+02
   7.190  0.1372E+01  0.3856E+02
   7.200  0.1365E+01  0.3858E+02
   7.210  0.1384E+01  0.3859E+02
   7.220  0.1367E+01  0.3861E+02
   7.230  0.1383E+01  0.3862E+02
   7.240  0.1395E+01  0.3863E+02
   7.250  0.1415E+01  0.3865E+02
   7.260  0.1550E+01  0.3866E+02
   7.270  0.1700E+01  0.3868E+02
   7.280  0.1818E+01  0.3870E+02
   7.290  0.1956E+01  0.3872E+02
   7.300  0.2018E+01  0.3874E+02
   7.310  0.2097E+01  0.3876E+02
   7.320  0.2074E+01  0.3878E+02
   7.330  0.2099E+01  0.3880E+02
   7.340  0.2126E+01  0.3882E+02
   7.350  0.2136E+01  0.3884E+02
   7.360  0.2159E+01  0.3886E+02
   7.370  0.2143E+01  0.3888E+02
   7.380  0.2162E+01  0.3890E+02
   7.390  0.2181E+01  0.3893E+02
   7.400  0.2193E+01  0.3895E+02
   7.410  0.2197E+01  0.3897E+02
   7.420  0.2209E+01  0.3899E+02
   7.430  0.2228E+01  0.3901E+02
   7.440  0.2249E+01  0.3904E+02
   7.450  0.2281E+01  0.3906E+02
   7.460  0.2309E+01  0.3908E+02
   7.470  0.2336E+01  0.3911E+02
   7.480  0.2360E+01  0.3913E+02
   7.490  0.2381E+01  0.3915E+02
   7.500  0.2427E+01  0.3918E+02
   7.510  0.2597E+01  0.3920E+02
   7.520  0.2756E+01  0.3923E+02
   7.530  0.2945E+01  0.3926E+02
   7.540  0.3329E+01  0.3929E+02
   7.550  0.3347E+01  0.3932E+02
   7.560  0.3455E+01  0.3936E+02
   7.570  0.3528E+01  0.3939E+02
   7.580  0.3463E+01  0.3943E+02
   7.590  0.3499E+01  0.3946E+02
   7.600  0.3527E+01  0.3950E+02
   7.610  0.3594E+01  0.3953E+02
   7.620  0.3642E+01  0.3957E+02
   7.630  0.3926E+01  0.3961E+02
   7.640  0.4052E+01  0.3965E+02
   7.650  0.4238E+01  0.3969E+02
   7.660  0.4386E+01  0.3973E+02
   7.670  0.4509E+01  0.3977E+02
   7.680  0.4471E+01  0.3982E+02
   7.690  0.4534E+01  0.3986E+02
   7.700  0.4546E+01  0.3991E+02
   7.710  0.4543E+01  0.3995E+02
   7.720  0.4622E+01  0.4000E+02
   7.730  0.4729E+01  0.4005E+02
   7.740  0.4813E+01  0.4010E+02
   7.750  0.4800E+01  0.4014E+02
   7.760  0.4847E+01  0.4019E+02
   7.770  0.4882E+01  0.4024E+02
   7.780  0.4625E+01  0.4029E+02
   7.790  0.4402E+01  0.4033E+02
   7.800  0.4388E+01  0.4038E+02
   7.810  0.4392E+01  0.4042E+02
   7.820  0.4487E+01  0.4046E+02
   7.830  0.4594E+01  0.4051E+02
   7.840  0.4747E+01  0.4056E+02
   7.850  0.4959E+01  0.4060E+02
   7.860  0.5635E+01  0.4066E+02
   7.870  0.4630E+01  0.4071E+02
   7.880  0.4058E+01  0.4075E+02
   7.890  0.4011E+01  0.4079E+02
   7.900  0.4145E+01  0.4083E+02
   7.910  0.4401E+01  0.4088E+02
   7.920  0.4650E+01  0.4092E+02
   7.930  0.4551E+01  0.4097E+02
   7.940  0.4573E+01  0.4101E+02
   7.950  0.4607E+01  0.4106E+02
   7.960  0.4730E+01  0.4111E+02
   7.970  0.4895E+01  0.4116E+02
   7.980  0.5156E+01  0.4121E+02
   7.990  0.5718E+01  0.4126E+02
   8.000  0.5881E+01  0.4132E+02
   8.010  0.6060E+01  0.4138E+02
   8.020  0.6253E+01  0.4144E+02
   8.030  0.6099E+01  0.4150E+02
   8.040  0.5941E+01  0.4156E+02
   8.050  0.5892E+01  0.4162E+02
   8.060  0.5886E+01  0.4168E+02
   8.070  0.5910E+01  0.4174E+02
   8.080  0.5957E+01  0.4180E+02
   8.090  0.6076E+01  0.4186E+02
   8.100  0.6292E+01  0.4192E+02
   8.110  0.6429E+01  0.4198E+02
   8.120  0.6467E+01  0.4205E+02
   8.130  0.6405E+01  0.4211E+02
   8.140  0.6272E+01  0.4218E+02
   8.150  0.6150E+01  0.4224E+02
   8.160  0.5978E+01  0.4230E+02
   8.170  0.5838E+01  0.4236E+02
   8.180  0.5885E+01  0.4242E+02
   8.190  0.5882E+01  0.4248E+02
   8.200  0.5890E+01  0.4253E+02
   8.210  0.5876E+01  0.4259E+02
   8.220  0.5833E+01  0.4265E+02
   8.230  0.5868E+01  0.4271E+02
   8.240  0.5863E+01  0.4277E+02
   8.250  0.5936E+01  0.4283E+02
   8.260  0.5970E+01  0.4289E+02
   8.270  0.5932E+01  0.4295E+02
   8.280  0.5757E+01  0.4301E+02
   8.290  0.5614E+01  0.4306E+02
   8.300  0.5593E+01  0.4312E+02
   8.310  0.5653E+01  0.4317E+02
   8.320  0.5804E+01  0.4323E+02
   8.330  0.6011E+01  0.4329E+02
   8.340  0.6147E+01  0.4335E+02
   8.350  0.6218E+01  0.4341E+02
   8.360  0.6145E+01  0.4348E+02
   8.370  0.6624E+01  0.4354E+02
   8.380  0.6143E+01  0.4360E+02
   8.390  0.6063E+01  0.4366E+02
   8.400  0.5575E+01  0.4372E+02
   8.410  0.5388E+01  0.4378E+02
   8.420  0.5431E+01  0.4383E+02
   8.430  0.5310E+01  0.4389E+02
   8.440  0.5349E+01  0.4394E+02
   8.450  0.5432E+01  0.4399E+02
   8.460  0.5382E+01  0.4405E+02
   8.470  0.5290E+01  0.4410E+02
   8.480  0.5087E+01  0.4415E+02
   8.490  0.5081E+01  0.4420E+02
   8.500  0.4962E+01  0.4425E+02
   8.510  0.4909E+01  0.4430E+02
   8.520  0.4786E+01  0.4435E+02
   8.530  0.4579E+01  0.4440E+02
   8.540  0.4380E+01  0.4444E+02
   8.550  0.4266E+01  0.4449E+02
   8.560  0.4349E+01  0.4453E+02
   8.570  0.4270E+01  0.4457E+02
   8.580  0.4169E+01  0.4461E+02
   8.590  0.4215E+01  0.4466E+02
   8.600  0.4240E+01  0.4470E+02
   8.610  0.3998E+01  0.4474E+02
   8.620  0.3832E+01  0.4478E+02
   8.630  0.3872E+01  0.4482E+02
   8.640  0.3784E+01  0.4486E+02
   8.650  0.3740E+01  0.4489E+02
   8.660  0.3757E+01  0.4493E+02
   8.670  0.3839E+01  0.4497E+02
   8.680  0.3863E+01  0.4501E+02
   8.690  0.3818E+01  0.4505E+02
   8.700  0.3839E+01  0.4508E+02
   8.710  0.3863E+01  0.4512E+02
   8.720  0.3933E+01  0.4516E+02
   8.730  0.3932E+01  0.4520E+02
   8.740  0.3922E+01  0.4524E+02
   8.750  0.3947E+01  0.4528E+02
   8.760  0.3948E+01  0.4532E+02
   8.770  0.3986E+01  0.4536E+02
   8.780  0.4039E+01  0.4540E+02
   8.790  0.4139E+01  0.4544E+02
   8.800  0.4219E+01  0.4548E+02
   8.810  0.4281E+01  0.4552E+02
   8.820  0.4350E+01  0.4557E+02
   8.830  0.4442E+01  0.4561E+02
   8.840  0.4530E+01  0.4566E+02
   8.850  0.4629E+01  0.4570E+02
   8.860  0.4705E+01  0.4575E+02
   8.870  0.4767E+01  0.4580E+02
   8.880  0.4815E+01  0.4584E+02
   8.890  0.4859E+01  0.4589E+02
   8.900  0.4893E+01  0.4594E+02
   8.910  0.4952E+01  0.4599E+02
   8.920  0.5038E+01  0.4604E+02
   8.930  0.5021E+01  0.4609E+02
   8.940  0.4851E+01  0.4614E+02
   8.950  0.4628E+01  0.4619E+02
   8.960  0.4554E+01  0.4623E+02
   8.970  0.4534E+01  0.4628E+02
   8.980  0.4321E+01  0.4632E+02
   8.990  0.4153E+01  0.4637E+02
   9.000  0.4013E+01  0.4641E+02
   9.010  0.3897E+01  0.4645E+02
   9.020  0.3782E+01  0.4648E+02
   9.030  0.3679E+01  0.4652E+02
   9.040  0.3633E+01  0.4656E+02
   9.050  0.3602E+01  0.4659E+02
   9.060  0.3549E+01  0.4663E+02
   9.070  0.3497E+01  0.4666E+02
   9.080  0.3453E+01  0.4670E+02
   9.090  0.3402E+01  0.4673E+02
   9.100  0.3359E+01  0.4677E+02
   9.110  0.3347E+01  0.4680E+02
   9.120  0.3302E+01  0.4683E+02
   9.130  0.3256E+01  0.4687E+02
   9.140  0.3248E+01  0.4690E+02
   9.150  0.3239E+01  0.4693E+02
   9.160  0.3262E+01  0.4696E+02
   9.170  0.3191E+01  0.4700E+02
   9.180  0.3138E+01  0.4703E+02
   9.190  0.3125E+01  0.4706E+02
   9.200  0.3123E+01  0.4709E+02
   9.210  0.3126E+01  0.4712E+02
   9.220  0.3117E+01  0.4715E+02
   9.230  0.3096E+01  0.4718E+02
   9.240  0.3084E+01  0.4722E+02
   9.250  0.3076E+01  0.4725E+02
   9.260  0.3079E+01  0.4728E+02
   9.270  0.3079E+01  0.4731E+02
   9.280  0.3067E+01  0.4734E+02
   9.290  0.3043E+01  0.4737E+02
   9.300  0.3027E+01  0.4740E+02
   9.310  0.3023E+01  0.4743E+02
   9.320  0.3022E+01  0.4746E+02
   9.330  0.3073E+01  0.4749E+02
   9.340  0.3040E+01  0.4752E+02
   9.350  0.3015E+01  0.4755E+02
   9.360  0.3008E+01  0.4758E+02
   9.370  0.3009E+01  0.4761E+02
   9.380  0.3013E+01  0.4764E+02
   9.390  0.3012E+01  0.4767E+02
   9.400  0.3013E+01  0.4770E+02
   9.410  0.3010E+01  0.4773E+02
   9.420  0.3005E+01  0.4776E+02
   9.430  0.3008E+01  0.4779E+02
   9.440  0.3013E+01  0.4782E+02
   9.450  0.3027E+01  0.4785E+02
   9.460  0.3184E+01  0.4788E+02
   9.470  0.3058E+01  0.4791E+02
   9.480  0.3047E+01  0.4794E+02
   9.490  0.3044E+01  0.4798E+02
   9.500  0.3041E+01  0.4801E+02
   9.510  0.3044E+01  0.4804E+02
   9.520  0.3060E+01  0.4807E+02
   9.530  0.3082E+01  0.4810E+02
   9.540  0.3104E+01  0.4813E+02
   9.550  0.3116E+01  0.4816E+02
   9.560  0.3128E+01  0.4819E+02
   9.570  0.3136E+01  0.4822E+02
   9.580  0.3146E+01  0.4825E+02
   9.590  0.3161E+01  0.4828E+02
   9.600  0.3193E+01  0.4832E+02
   9.610  0.3237E+01  0.4835E+02
   9.620  0.3279E+01  0.4838E+02
   9.630  0.3301E+01  0.4841E+02
   9.640  0.3302E+01  0.4845E+02
   9.650  0.3305E+01  0.4848E+02
   9.660  0.3344E+01  0.4851E+02
   9.670  0.3402E+01  0.4855E+02
   9.680  0.3456E+01  0.4858E+02
   9.690  0.3518E+01  0.4862E+02
   9.700  0.3593E+01  0.4865E+02
   9.710  0.3692E+01  0.4869E+02
   9.720  0.3782E+01  0.4873E+02
   9.730  0.3852E+01  0.4876E+02
   9.740  0.3952E+01  0.4880E+02
   9.750  0.4114E+01  0.4884E+02
   9.760  0.4139E+01  0.4888E+02
   9.770  0.3990E+01  0.4892E+02
   9.780  0.3909E+01  0.4896E+02
   9.790  0.3962E+01  0.4900E+02
   9.800  0.4071E+01  0.4904E+02
   9.810  0.4060E+01  0.4908E+02
   9.820  0.3858E+01  0.4912E+02
   9.830  0.3875E+01  0.4916E+02
   9.840  0.3914E+01  0.4920E+02
   9.850  0.3935E+01  0.4924E+02
   9.860  0.3910E+01  0.4928E+02
   9.870  0.3811E+01  0.4932E+02
   9.880  0.3744E+01  0.4936E+02
   9.890  0.3704E+01  0.4939E+02
   9.900  0.3729E+01  0.4943E+02
   9.910  0.3885E+01  0.4947E+02
   9.920  0.3928E+01  0.4951E+02
   9.930  0.4029E+01  0.4955E+02
   9.940  0.4091E+01  0.4959E+02
   9.950  0.4130E+01  0.4963E+02
   9.960  0.4170E+01  0.4967E+02
   9.970  0.4194E+01  0.4971E+02
   9.980  0.4199E+01  0.4976E+02
   9.990  0.4243E+01  0.4980E+02
  10.000  0.4211E+01  0.4984E+02
  10.010  0.4192E+01  0.4988E+02
  10.020  0.4176E+01  0.4992E+02
  10.030  0.4138E+01  0.4997E+02
  10.040  0.4098E+01  0.5001E+02
  10.050  0.4084E+01  0.5005E+02
  10.060  0.4070E+01  0.5009E+02
  10.070  0.4095E+01  0.5013E+02
  10.080  0.4120E+01  0.5017E+02
  10.090  0.4118E+01  0.5021E+02
  10.100  0.4117E+01  0.5025E+02
  10.110  0.4107E+01  0.5029E+02
  10.120  0.4103E+01  0.5033E+02
  10.130  0.4113E+01  0.5038E+02
  10.140  0.4140E+01  0.5042E+02
  10.150  0.4151E+01  0.5046E+02
  10.160  0.4171E+01  0.5050E+02
  10.170  0.4204E+01  0.5054E+02
  10.180  0.4223E+01  0.5058E+02
  10.190  0.4250E+01  0.5063E+02
  10.200  0.4278E+01  0.5067E+02
  10.210  0.4283E+01  0.5071E+02
  10.220  0.4284E+01  0.5075E+02
  10.230  0.4336E+01  0.5080E+02
  10.240  0.4390E+01  0.5084E+02
  10.250  0.4478E+01  0.5089E+02
  10.260  0.4575E+01  0.5093E+02
  10.270  0.4779E+01  0.5098E+02
  10.280  0.4772E+01  0.5103E+02
  10.290  0.4835E+01  0.5107E+02
  10.300  0.4925E+01  0.5112E+02
  10.310  0.4978E+01  0.5117E+02
  10.320  0.5034E+01  0.5122E+02
  10.330  0.5094E+01  0.5127E+02
  10.340  0.5148E+01  0.5132E+02
  10.350  0.5215E+01  0.5138E+02
  10.360  0.5264E+01  0.5143E+02
  10.370  0.5291E+01  0.5148E+02
  10.380  0.5329E+01  0.5153E+02
  10.390  0.5384E+01  0.5159E+02
  10.400  0.5514E+01  0.5164E+02
  10.410  0.5408E+01  0.5170E+02
  10.420  0.5613E+01  0.5175E+02
  10.430  0.6139E+01  0.5181E+02
  10.440  0.5775E+01  0.5187E+02
  10.450  0.5414E+01  0.5193E+02
  10.460  0.5390E+01  0.5198E+02
  10.470  0.5381E+01  0.5204E+02
  10.480  0.5309E+01  0.5209E+02
  10.490  0.5280E+01  0.5214E+02
  10.500  0.5293E+01  0.5219E+02
  10.510  0.5363E+01  0.5225E+02
  10.520  0.5478E+01  0.5230E+02
  10.530  0.5555E+01  0.5236E+02
  10.540  0.5394E+01  0.5241E+02
  10.550  0.5536E+01  0.5247E+02
  10.560  0.5839E+01  0.5252E+02
  10.570  0.5703E+01  0.5258E+02
  10.580  0.5506E+01  0.5264E+02
  10.590  0.5519E+01  0.5269E+02
  10.600  0.5584E+01  0.5275E+02
  10.610  0.5719E+01  0.5280E+02
  10.620  0.5913E+01  0.5286E+02
  10.630  0.5976E+01  0.5292E+02
  10.640  0.6170E+01  0.5298E+02
  10.650  0.6577E+01  0.5305E+02
  10.660  0.6766E+01  0.5311E+02
  10.670  0.6923E+01  0.5318E+02
  10.680  0.7035E+01  0.5325E+02
  10.690  0.7334E+01  0.5332E+02
  10.700  0.7343E+01  0.5340E+02
  10.710  0.8059E+01  0.5347E+02
  10.720  0.7102E+01  0.5354E+02
  10.730  0.6807E+01  0.5361E+02
  10.740  0.6927E+01  0.5368E+02
  10.750  0.6564E+01  0.5375E+02
  10.760  0.6408E+01  0.5381E+02
  10.770  0.6842E+01  0.5388E+02
  10.780  0.6660E+01  0.5395E+02
  10.790  0.6379E+01  0.5401E+02
  10.800  0.5864E+01  0.5407E+02
  10.810  0.5686E+01  0.5413E+02
  10.820  0.5896E+01  0.5419E+02
  10.830  0.6024E+01  0.5425E+02
  10.840  0.6179E+01  0.5431E+02
  10.850  0.6300E+01  0.5437E+02
  10.860  0.6480E+01  0.5444E+02
  10.870  0.6347E+01  0.5450E+02
  10.880  0.6195E+01  0.5456E+02
  10.890  0.6081E+01  0.5462E+02
  10.900  0.6393E+01  0.5468E+02
  10.910  0.5752E+01  0.5474E+02
  10.920  0.5620E+01  0.5480E+02
  10.930  0.5452E+01  0.5485E+02
  10.940  0.5436E+01  0.5491E+02
  10.950  0.5329E+01  0.5496E+02
  10.960  0.5498E+01  0.5502E+02
  10.970  0.5466E+01  0.5507E+02
  10.980  0.5632E+01  0.5513E+02
  10.990  0.5715E+01  0.5518E+02
  11.000  0.5708E+01  0.5524E+02
  11.010  0.5687E+01  0.5530E+02
  11.020  0.5863E+01  0.5536E+02
  11.030  0.5905E+01  0.5542E+02
  11.040  0.5992E+01  0.5548E+02
  11.050  0.5877E+01  0.5553E+02
  11.060  0.5907E+01  0.5559E+02
  11.070  0.5819E+01  0.5565E+02
  11.080  0.5927E+01  0.5571E+02
  11.090  0.5758E+01  0.5577E+02
  11.100  0.5696E+01  0.5583E+02
  11.110  0.5706E+01  0.5588E+02
  11.120  0.5729E+01  0.5594E+02
  11.130  0.5823E+01  0.5600E+02
  11.140  0.5886E+01  0.5606E+02
  11.150  0.5980E+01  0.5612E+02
  11.160  0.6105E+01  0.5618E+02
  11.170  0.6364E+01  0.5624E+02
  11.180  0.6135E+01  0.5630E+02
  11.190  0.6118E+01  0.5636E+02
  11.200  0.6374E+01  0.5643E+02
  11.210  0.7056E+01  0.5649E+02
  11.220  0.7477E+01  0.5657E+02
  11.230  0.7460E+01  0.5664E+02
  11.240  0.7748E+01  0.5672E+02
  11.250  0.7794E+01  0.5679E+02
  11.260  0.8091E+01  0.5687E+02
  11.270  0.8249E+01  0.5695E+02
  11.280  0.8068E+01  0.5704E+02
  11.290  0.8079E+01  0.5712E+02
  11.300  0.8188E+01  0.5720E+02
  11.310  0.8186E+01  0.5728E+02
  11.320  0.8309E+01  0.5736E+02
  11.330  0.8617E+01  0.5745E+02
  11.340  0.8163E+01  0.5753E+02
  11.350  0.8488E+01  0.5761E+02
  11.360  0.8164E+01  0.5770E+02
  11.370  0.7950E+01  0.5778E+02
  11.380  0.7406E+01  0.5786E+02
  11.390  0.7224E+01  0.5793E+02
  11.400  0.7023E+01  0.5800E+02
  11.410  0.7219E+01  0.5807E+02
  11.420  0.7750E+01  0.5815E+02
  11.430  0.7926E+01  0.5823E+02
  11.440  0.8004E+01  0.5831E+02
  11.450  0.7980E+01  0.5839E+02
  11.460  0.8049E+01  0.5847E+02
  11.470  0.8365E+01  0.5855E+02
  11.480  0.7537E+01  0.5863E+02
  11.490  0.6994E+01  0.5871E+02
  11.500  0.6812E+01  0.5877E+02
  11.510  0.6690E+01  0.5885E+02
  11.520  0.7011E+01  0.5891E+02
  11.530  0.7238E+01  0.5898E+02
  11.540  0.7187E+01  0.5906E+02
  11.550  0.6477E+01  0.5913E+02
  11.560  0.6012E+01  0.5919E+02
  11.570  0.6360E+01  0.5925E+02
  11.580  0.6592E+01  0.5932E+02
  11.590  0.6778E+01  0.5938E+02
  11.600  0.6731E+01  0.5945E+02
  11.610  0.6794E+01  0.5952E+02
  11.620  0.7018E+01  0.5959E+02
  11.630  0.7394E+01  0.5966E+02
  11.640  0.7662E+01  0.5973E+02
  11.650  0.7491E+01  0.5981E+02
  11.660  0.7235E+01  0.5988E+02
  11.670  0.7238E+01  0.5996E+02
  11.680  0.7309E+01  0.6003E+02
  11.690  0.7116E+01  0.6010E+02
  11.700  0.7199E+01  0.6017E+02
  11.710  0.7110E+01  0.6024E+02
  11.720  0.7042E+01  0.6031E+02
  11.730  0.6890E+01  0.6038E+02
  11.740  0.6960E+01  0.6045E+02
  11.750  0.6738E+01  0.6052E+02
  11.760  0.6198E+01  0.6059E+02
  11.770  0.5851E+01  0.6065E+02
  11.780  0.5811E+01  0.6071E+02
  11.790  0.5569E+01  0.6076E+02
  11.800  0.5442E+01  0.6082E+02
  11.810  0.5321E+01  0.6087E+02
  11.820  0.5278E+01  0.6092E+02
  11.830  0.5152E+01  0.6098E+02
  11.840  0.5123E+01  0.6103E+02
  11.850  0.4921E+01  0.6108E+02
  11.860  0.4852E+01  0.6113E+02
  11.870  0.4846E+01  0.6118E+02
  11.880  0.4933E+01  0.6122E+02
  11.890  0.5059E+01  0.6127E+02
  11.900  0.5014E+01  0.6133E+02
  11.910  0.5076E+01  0.6138E+02
  11.920  0.5045E+01  0.6143E+02
  11.930  0.5201E+01  0.6148E+02
  11.940  0.5248E+01  0.6153E+02
  11.950  0.5167E+01  0.6158E+02
  11.960  0.5221E+01  0.6163E+02
  11.970  0.5271E+01  0.6169E+02
  11.980  0.5355E+01  0.6174E+02
  11.990  0.5439E+01  0.6179E+02
  12.000  0.5564E+01  0.6185E+02
  12.010  0.5635E+01  0.6190E+02
  12.020  0.5708E+01  0.6196E+02
  12.030  0.5397E+01  0.6202E+02
  12.040  0.5263E+01  0.6207E+02
  12.050  0.5316E+01  0.6212E+02
  12.060  0.5184E+01  0.6217E+02
  12.070  0.5155E+01  0.6223E+02
  12.080  0.5131E+01  0.6228E+02
  12.090  0.5073E+01  0.6233E+02
  12.100  0.5029E+01  0.6238E+02
  12.110  0.4937E+01  0.6243E+02
  12.120  0.4958E+01  0.6248E+02
  12.130  0.4974E+01  0.6253E+02
  12.140  0.5001E+01  0.6258E+02
  12.150  0.5039E+01  0.6263E+02
  12.160  0.5056E+01  0.6268E+02
  12.170  0.5046E+01  0.6273E+02
  12.180  0.5089E+01  0.6278E+02
  12.190  0.5203E+01  0.6283E+02
  12.200  0.5433E+01  0.6288E+02
  12.210  0.5355E+01  0.6294E+02
  12.220  0.5355E+01  0.6299E+02
  12.230  0.5398E+01  0.6305E+02
  12.240  0.5410E+01  0.6310E+02
  12.250  0.5489E+01  0.6315E+02
  12.260  0.5575E+01  0.6321E+02
  12.270  0.5609E+01  0.6327E+02
  12.280  0.5506E+01  0.6332E+02
  12.290  0.5509E+01  0.6338E+02
  12.300  0.5541E+01  0.6343E+02
  12.310  0.5635E+01  0.6349E+02
  12.320  0.5752E+01  0.6354E+02
  12.330  0.5852E+01  0.6360E+02
  12.340  0.5959E+01  0.6366E+02
  12.350  0.6019E+01  0.6372E+02
  12.360  0.6081E+01  0.6378E+02
  12.370  0.6075E+01  0.6384E+02
  12.380  0.6138E+01  0.6390E+02
  12.390  0.6116E+01  0.6397E+02
  12.400  0.6155E+01  0.6403E+02
  12.410  0.6292E+01  0.6409E+02
  12.420  0.6381E+01  0.6415E+02
  12.430  0.6518E+01  0.6422E+02
  12.440  0.6629E+01  0.6428E+02
  12.450  0.6870E+01  0.6435E+02
  12.460  0.6990E+01  0.6442E+02
  12.470  0.7132E+01  0.6449E+02
  12.480  0.7232E+01  0.6456E+02
  12.490  0.7556E+01  0.6464E+02
  12.500  0.7296E+01  0.6471E+02
  12.510  0.7048E+01  0.6479E+02
  12.520  0.6386E+01  0.6485E+02
  12.530  0.6365E+01  0.6492E+02
  12.540  0.6422E+01  0.6498E+02
  12.550  0.6358E+01  0.6504E+02
  12.560  0.6254E+01  0.6511E+02
  12.570  0.6312E+01  0.6517E+02
  12.580  0.6277E+01  0.6523E+02
  12.590  0.6218E+01  0.6530E+02
  12.600  0.6131E+01  0.6536E+02
  12.610  0.6234E+01  0.6542E+02
  12.620  0.5873E+01  0.6548E+02
  12.630  0.5804E+01  0.6554E+02
  12.640  0.5798E+01  0.6560E+02
  12.650  0.5811E+01  0.6565E+02
  12.660  0.5806E+01  0.6571E+02
  12.670  0.5676E+01  0.6577E+02
  12.680  0.5624E+01  0.6583E+02
  12.690  0.5605E+01  0.6588E+02
  12.700  0.5597E+01  0.6594E+02
  12.710  0.5651E+01  0.6599E+02
  12.720  0.5602E+01  0.6605E+02
  12.730  0.5733E+01  0.6611E+02
  12.740  0.6568E+01  0.6617E+02
  12.750  0.6344E+01  0.6623E+02
  12.760  0.5263E+01  0.6629E+02
  12.770  0.5070E+01  0.6634E+02
  12.780  0.4955E+01  0.6639E+02
  12.790  0.4829E+01  0.6644E+02
  12.800  0.4780E+01  0.6649E+02
  12.810  0.4763E+01  0.6654E+02
  12.820  0.4764E+01  0.6658E+02
  12.830  0.4781E+01  0.6663E+02
  12.840  0.4855E+01  0.6668E+02
  12.850  0.4984E+01  0.6673E+02
  12.860  0.5134E+01  0.6678E+02
  12.870  0.5355E+01  0.6683E+02
  12.880  0.5496E+01  0.6689E+02
  12.890  0.5524E+01  0.6694E+02
  12.900  0.5551E+01  0.6700E+02
  12.910  0.5763E+01  0.6705E+02
  12.920  0.5834E+01  0.6711E+02
  12.930  0.5857E+01  0.6717E+02
  12.940  0.5899E+01  0.6723E+02
  12.950  0.6020E+01  0.6729E+02
  12.960  0.6114E+01  0.6735E+02
  12.970  0.6361E+01  0.6741E+02
  12.980  0.6695E+01  0.6747E+02
  12.990  0.6897E+01  0.6754E+02
  13.000  0.6225E+01  0.6761E+02
  13.010  0.6171E+01  0.6767E+02
  13.020  0.5477E+01  0.6773E+02
  13.030  0.5313E+01  0.6778E+02
  13.040  0.5278E+01  0.6783E+02
  13.050  0.5293E+01  0.6789E+02
  13.060  0.5290E+01  0.6794E+02
  13.070  0.5254E+01  0.6799E+02
  13.080  0.5174E+01  0.6804E+02
  13.090  0.5137E+01  0.6810E+02
  13.100  0.4948E+01  0.6815E+02
  13.110  0.4860E+01  0.6820E+02
  13.120  0.4833E+01  0.6824E+02
  13.130  0.4615E+01  0.6829E+02
  13.140  0.4607E+01  0.6834E+02
  13.150  0.4345E+01  0.6838E+02
  13.160  0.4368E+01  0.6842E+02
  13.170  0.4282E+01  0.6847E+02
  13.180  0.4156E+01  0.6851E+02
  13.190  0.4290E+01  0.6855E+02
  13.200  0.4457E+01  0.6860E+02
  13.210  0.4321E+01  0.6864E+02
  13.220  0.4189E+01  0.6868E+02
  13.230  0.4097E+01  0.6872E+02
  13.240  0.4135E+01  0.6876E+02
  13.250  0.4217E+01  0.6881E+02
  13.260  0.4474E+01  0.6885E+02
  13.270  0.4696E+01  0.6889E+02
  13.280  0.4866E+01  0.6894E+02
  13.290  0.5020E+01  0.6899E+02
  13.300  0.5467E+01  0.6904E+02
  13.310  0.5711E+01  0.6910E+02
  13.320  0.5643E+01  0.6916E+02
  13.330  0.5606E+01  0.6921E+02
  13.340  0.5973E+01  0.6927E+02
  13.350  0.5728E+01  0.6933E+02
  13.360  0.5068E+01  0.6938E+02
  13.370  0.4509E+01  0.6943E+02
  13.380  0.4372E+01  0.6948E+02
  13.390  0.4513E+01  0.6952E+02
  13.400  0.4500E+01  0.6956E+02
  13.410  0.4568E+01  0.6961E+02
  13.420  0.4547E+01  0.6966E+02
  13.430  0.4446E+01  0.6970E+02
  13.440  0.4340E+01  0.6974E+02
  13.450  0.4341E+01  0.6979E+02
  13.460  0.4371E+01  0.6983E+02
  13.470  0.4369E+01  0.6988E+02
  13.480  0.4378E+01  0.6992E+02
  13.490  0.4398E+01  0.6996E+02
  13.500  0.4401E+01  0.7001E+02
  13.510  0.4446E+01  0.7005E+02
  13.520  0.4585E+01  0.7010E+02
  13.530  0.4758E+01  0.7014E+02
  13.540  0.4908E+01  0.7019E+02
  13.550  0.5177E+01  0.7024E+02
  13.560  0.5381E+01  0.7030E+02
  13.570  0.5615E+01  0.7035E+02
  13.580  0.5706E+01  0.7041E+02
  13.590  0.5858E+01  0.7047E+02
  13.600  0.5959E+01  0.7052E+02
  13.610  0.6148E+01  0.7059E+02
  13.620  0.6463E+01  0.7065E+02
  13.630  0.6742E+01  0.7071E+02
  13.640  0.7082E+01  0.7078E+02
  13.650  0.7282E+01  0.7086E+02
  13.660  0.7516E+01  0.7093E+02
  13.670  0.7787E+01  0.7101E+02
  13.680  0.7769E+01  0.7108E+02
  13.690  0.7565E+01  0.7116E+02
  13.700  0.7449E+01  0.7124E+02
  13.710  0.7364E+01  0.7131E+02
  13.720  0.7374E+01  0.7138E+02
  13.730  0.7166E+01  0.7146E+02
  13.740  0.7016E+01  0.7153E+02
  13.750  0.6934E+01  0.7160E+02
  13.760  0.6821E+01  0.7167E+02
  13.770  0.6702E+01  0.7173E+02
  13.780  0.6672E+01  0.7180E+02
  13.790  0.6551E+01  0.7187E+02
  13.800  0.6575E+01  0.7193E+02
  13.810  0.6640E+01  0.7200E+02
  13.820  0.6612E+01  0.7207E+02
  13.830  0.6443E+01  0.7213E+02
  13.840  0.6361E+01  0.7219E+02
  13.850  0.6278E+01  0.7226E+02
  13.860  0.6049E+01  0.7232E+02
  13.870  0.5945E+01  0.7238E+02
  13.880  0.5831E+01  0.7244E+02
  13.890  0.5744E+01  0.7250E+02
  13.900  0.5759E+01  0.7255E+02
  13.910  0.5771E+01  0.7261E+02
  13.920  0.5856E+01  0.7267E+02
  13.930  0.5838E+01  0.7273E+02
  13.940  0.5651E+01  0.7278E+02
  13.950  0.5614E+01  0.7284E+02
  13.960  0.5538E+01  0.7290E+02
  13.970  0.5448E+01  0.7295E+02
  13.980  0.5416E+01  0.7301E+02
  13.990  0.5376E+01  0.7306E+02
  14.000  0.5392E+01  0.7311E+02
  14.010  0.5472E+01  0.7317E+02
  14.020  0.5545E+01  0.7322E+02
  14.030  0.5703E+01  0.7328E+02
  14.040  0.5874E+01  0.7334E+02
  14.050  0.5730E+01  0.7339E+02
  14.060  0.5700E+01  0.7345E+02
  14.070  0.5771E+01  0.7351E+02
  14.080  0.5866E+01  0.7357E+02
  14.090  0.6034E+01  0.7363E+02
  14.100  0.6144E+01  0.7369E+02
  14.110  0.6279E+01  0.7375E+02
  14.120  0.6526E+01  0.7381E+02
  14.130  0.7157E+01  0.7388E+02
  14.140  0.6951E+01  0.7395E+02
  14.150  0.6954E+01  0.7402E+02
  14.160  0.6470E+01  0.7409E+02
  14.170  0.6228E+01  0.7415E+02
  14.180  0.5950E+01  0.7421E+02
  14.190  0.5685E+01  0.7427E+02
  14.200  0.5618E+01  0.7433E+02
  14.210  0.5262E+01  0.7438E+02
  14.220  0.5229E+01  0.7443E+02
  14.230  0.5107E+01  0.7449E+02
  14.240  0.5129E+01  0.7454E+02
  14.250  0.5183E+01  0.7459E+02
  14.260  0.5231E+01  0.7464E+02
  14.270  0.5538E+01  0.7469E+02
  14.280  0.5547E+01  0.7475E+02
  14.290  0.5502E+01  0.7481E+02
  14.300  0.5671E+01  0.7486E+02
  14.310  0.6128E+01  0.7492E+02
  14.320  0.5316E+01  0.7498E+02
  14.330  0.5189E+01  0.7503E+02
  14.340  0.5107E+01  0.7508E+02
  14.350  0.5009E+01  0.7513E+02
  14.360  0.4818E+01  0.7518E+02
  14.370  0.4755E+01  0.7523E+02
  14.380  0.4762E+01  0.7528E+02
  14.390  0.4662E+01  0.7532E+02
  14.400  0.4636E+01  0.7537E+02
  14.410  0.4645E+01  0.7542E+02
  14.420  0.4607E+01  0.7546E+02
  14.430  0.4671E+01  0.7551E+02
  14.440  0.4713E+01  0.7556E+02
  14.450  0.4840E+01  0.7560E+02
  14.460  0.4802E+01  0.7565E+02
  14.470  0.4901E+01  0.7570E+02
  14.480  0.4727E+01  0.7575E+02
  14.490  0.4737E+01  0.7580E+02
  14.500  0.4858E+01  0.7584E+02
  14.510  0.4935E+01  0.7589E+02
  14.520  0.5039E+01  0.7594E+02
  14.530  0.5172E+01  0.7599E+02
  14.540  0.5310E+01  0.7605E+02
  14.550  0.5093E+01  0.7610E+02
  14.560  0.5087E+01  0.7615E+02
  14.570  0.5108E+01  0.7620E+02
  14.580  0.5120E+01  0.7625E+02
  14.590  0.5020E+01  0.7630E+02
  14.600  0.4980E+01  0.7635E+02
  14.610  0.4950E+01  0.7640E+02
  14.620  0.4979E+01  0.7645E+02
  14.630  0.4886E+01  0.7650E+02
  14.640  0.4983E+01  0.7655E+02
  14.650  0.5058E+01  0.7660E+02
  14.660  0.5071E+01  0.7665E+02
  14.670  0.5253E+01  0.7670E+02
  14.680  0.5520E+01  0.7676E+02
  14.690  0.5654E+01  0.7681E+02
  14.700  0.5578E+01  0.7687E+02
  14.710  0.6146E+01  0.7692E+02
  14.720  0.6443E+01  0.7699E+02
  14.730  0.6528E+01  0.7705E+02
  14.740  0.6647E+01  0.7712E+02
  14.750  0.6516E+01  0.7718E+02
  14.760  0.6365E+01  0.7725E+02
  14.770  0.6417E+01  0.7731E+02
  14.780  0.6501E+01  0.7738E+02
  14.790  0.6554E+01  0.7744E+02
  14.800  0.6586E+01  0.7751E+02
  14.810  0.6628E+01  0.7757E+02
  14.820  0.6642E+01  0.7764E+02
  14.830  0.6604E+01  0.7771E+02
  14.840  0.6612E+01  0.7777E+02
  14.850  0.6632E+01  0.7784E+02
  14.860  0.6726E+01  0.7791E+02
  14.870  0.6815E+01  0.7797E+02
  14.880  0.6965E+01  0.7804E+02
  14.890  0.7106E+01  0.7811E+02
  14.900  0.7164E+01  0.7818E+02
  14.910  0.7363E+01  0.7826E+02
  14.920  0.7644E+01  0.7833E+02
  14.930  0.7529E+01  0.7841E+02
  14.940  0.7543E+01  0.7848E+02
  14.950  0.7345E+01  0.7856E+02
  14.960  0.7221E+01  0.7863E+02
  14.970  0.6522E+01  0.7870E+02
  14.980  0.6363E+01  0.7876E+02
  14.990  0.6161E+01  0.7883E+02
  15.000  0.6082E+01  0.7889E+02
