#  E (eV)   dos(E)     Int dos(E) EFermi =    3.822 eV
 -15.000  0.0000E+00  0.0000E+00
 -14.990  0.0000E+00  0.0000E+00
 -14.980  0.0000E+00  0.0000E+00
 -14.970  0.0000E+00  0.0000E+00
 -14.960  0.0000E+00  0.0000E+00
 -14.950  0.0000E+00  0.0000E+00
 -14.940  0.0000E+00  0.0000E+00
 -14.930  0.0000E+00  0.0000E+00
 -14.920  0.0000E+00  0.0000E+00
 -14.910  0.0000E+00  0.0000E+00
 -14.900  0.0000E+00  0.0000E+00
 -14.890  0.0000E+00  0.0000E+00
 -14.880  0.0000E+00  0.0000E+00
 -14.870  0.0000E+00  0.0000E+00
 -14.860  0.0000E+00  0.0000E+00
 -14.850  0.0000E+00  0.0000E+00
 -14.840  0.0000E+00  0.0000E+00
 -14.830  0.0000E+00  0.0000E+00
 -14.820  0.0000E+00  0.0000E+00
 -14.810  0.0000E+00  0.0000E+00
 -14.800  0.0000E+00  0.0000E+00
 -14.790  0.0000E+00  0.0000E+00
 -14.780  0.0000E+00  0.0000E+00
 -14.770  0.0000E+00  0.0000E+00
 -14.760  0.0000E+00  0.0000E+00
 -14.750  0.0000E+00  0.0000E+00
 -14.740  0.0000E+00  0.0000E+00
 -14.730  0.0000E+00  0.0000E+00
 -14.720  0.0000E+00  0.0000E+00
 -14.710  0.0000E+00  0.0000E+00
 -14.700  0.0000E+00  0.0000E+00
 -14.690  0.0000E+00  0.0000E+00
 -14.680  0.0000E+00  0.0000E+00
 -14.670  0.0000E+00  0.0000E+00
 -14.660  0.0000E+00  0.0000E+00
 -14.650  0.0000E+00  0.0000E+00
 -14.640  0.0000E+00  0.0000E+00
 -14.630  0.0000E+00  0.0000E+00
 -14.620  0.0000E+00  0.0000E+00
 -14.610  0.0000E+00  0.0000E+00
 -14.600  0.0000E+00  0.0000E+00
 -14.590  0.0000E+00  0.0000E+00
 -14.580  0.0000E+00  0.0000E+00
 -14.570  0.0000E+00  0.0000E+00
 -14.560  0.0000E+00  0.0000E+00
 -14.550  0.0000E+00  0.0000E+00
 -14.540  0.0000E+00  0.0000E+00
 -14.530  0.0000E+00  0.0000E+00
 -14.520  0.0000E+00  0.0000E+00
 -14.510  0.0000E+00  0.0000E+00
 -14.500  0.0000E+00  0.0000E+00
 -14.490  0.0000E+00  0.0000E+00
 -14.480  0.0000E+00  0.0000E+00
 -14.470  0.0000E+00  0.0000E+00
 -14.460  0.0000E+00  0.0000E+00
 -14.450  0.0000E+00  0.0000E+00
 -14.440  0.0000E+00  0.0000E+00
 -14.430  0.0000E+00  0.0000E+00
 -14.420  0.0000E+00  0.0000E+00
 -14.410  0.0000E+00  0.0000E+00
 -14.400  0.0000E+00  0.0000E+00
 -14.390  0.0000E+00  0.0000E+00
 -14.380  0.0000E+00  0.0000E+00
 -14.370  0.0000E+00  0.0000E+00
 -14.360  0.0000E+00  0.0000E+00
 -14.350  0.0000E+00  0.0000E+00
 -14.340  0.0000E+00  0.0000E+00
 -14.330  0.0000E+00  0.0000E+00
 -14.320  0.0000E+00  0.0000E+00
 -14.310  0.0000E+00  0.0000E+00
 -14.300  0.0000E+00  0.0000E+00
 -14.290  0.0000E+00  0.0000E+00
 -14.280  0.0000E+00  0.0000E+00
 -14.270  0.0000E+00  0.0000E+00
 -14.260  0.0000E+00  0.0000E+00
 -14.250  0.0000E+00  0.0000E+00
 -14.240  0.0000E+00  0.0000E+00
 -14.230  0.0000E+00  0.0000E+00
 -14.220  0.0000E+00  0.0000E+00
 -14.210  0.0000E+00  0.0000E+00
 -14.200  0.0000E+00  0.0000E+00
 -14.190  0.0000E+00  0.0000E+00
 -14.180  0.0000E+00  0.0000E+00
 -14.170  0.0000E+00  0.0000E+00
 -14.160  0.0000E+00  0.0000E+00
 -14.150  0.0000E+00  0.0000E+00
 -14.140  0.0000E+00  0.0000E+00
 -14.130  0.0000E+00  0.0000E+00
 -14.120  0.0000E+00  0.0000E+00
 -14.110  0.0000E+00  0.0000E+00
 -14.100  0.0000E+00  0.0000E+00
 -14.090  0.0000E+00  0.0000E+00
 -14.080  0.0000E+00  0.0000E+00
 -14.070  0.0000E+00  0.0000E+00
 -14.060  0.0000E+00  0.0000E+00
 -14.050  0.0000E+00  0.0000E+00
 -14.040  0.0000E+00  0.0000E+00
 -14.030  0.0000E+00  0.0000E+00
 -14.020  0.0000E+00  0.0000E+00
 -14.010  0.0000E+00  0.0000E+00
 -14.000  0.0000E+00  0.0000E+00
 -13.990  0.0000E+00  0.0000E+00
 -13.980  0.0000E+00  0.0000E+00
 -13.970  0.0000E+00  0.0000E+00
 -13.960  0.0000E+00  0.0000E+00
 -13.950  0.0000E+00  0.0000E+00
 -13.940  0.0000E+00  0.0000E+00
 -13.930  0.0000E+00  0.0000E+00
 -13.920  0.0000E+00  0.0000E+00
 -13.910  0.0000E+00  0.0000E+00
 -13.900  0.0000E+00  0.0000E+00
 -13.890  0.0000E+00  0.0000E+00
 -13.880  0.0000E+00  0.0000E+00
 -13.870  0.0000E+00  0.0000E+00
 -13.860  0.0000E+00  0.0000E+00
 -13.850  0.0000E+00  0.0000E+00
 -13.840  0.0000E+00  0.0000E+00
 -13.830  0.0000E+00  0.0000E+00
 -13.820  0.0000E+00  0.0000E+00
 -13.810  0.0000E+00  0.0000E+00
 -13.800  0.0000E+00  0.0000E+00
 -13.790  0.0000E+00  0.0000E+00
 -13.780  0.0000E+00  0.0000E+00
 -13.770  0.0000E+00  0.0000E+00
 -13.760  0.0000E+00  0.0000E+00
 -13.750  0.0000E+00  0.0000E+00
 -13.740  0.0000E+00  0.0000E+00
 -13.730  0.0000E+00  0.0000E+00
 -13.720  0.0000E+00  0.0000E+00
 -13.710  0.0000E+00  0.0000E+00
 -13.700  0.0000E+00  0.0000E+00
 -13.690  0.0000E+00  0.0000E+00
 -13.680  0.0000E+00  0.0000E+00
 -13.670  0.0000E+00  0.0000E+00
 -13.660  0.0000E+00  0.0000E+00
 -13.650  0.0000E+00  0.0000E+00
 -13.640  0.0000E+00  0.0000E+00
 -13.630  0.0000E+00  0.0000E+00
 -13.620  0.0000E+00  0.0000E+00
 -13.610  0.0000E+00  0.0000E+00
 -13.600  0.0000E+00  0.0000E+00
 -13.590  0.0000E+00  0.0000E+00
 -13.580  0.0000E+00  0.0000E+00
 -13.570  0.0000E+00  0.0000E+00
 -13.560  0.0000E+00  0.0000E+00
 -13.550  0.0000E+00  0.0000E+00
 -13.540  0.0000E+00  0.0000E+00
 -13.530  0.0000E+00  0.0000E+00
 -13.520  0.0000E+00  0.0000E+00
 -13.510  0.0000E+00  0.0000E+00
 -13.500  0.0000E+00  0.0000E+00
 -13.490  0.0000E+00  0.0000E+00
 -13.480  0.0000E+00  0.0000E+00
 -13.470  0.0000E+00  0.0000E+00
 -13.460  0.0000E+00  0.0000E+00
 -13.450  0.0000E+00  0.0000E+00
 -13.440  0.0000E+00  0.0000E+00
 -13.430  0.0000E+00  0.0000E+00
 -13.420  0.0000E+00  0.0000E+00
 -13.410  0.0000E+00  0.0000E+00
 -13.400  0.0000E+00  0.0000E+00
 -13.390  0.0000E+00  0.0000E+00
 -13.380  0.0000E+00  0.0000E+00
 -13.370  0.0000E+00  0.0000E+00
 -13.360  0.0000E+00  0.0000E+00
 -13.350  0.0000E+00  0.0000E+00
 -13.340  0.0000E+00  0.0000E+00
 -13.330  0.0000E+00  0.0000E+00
 -13.320  0.0000E+00  0.0000E+00
 -13.310  0.0000E+00  0.0000E+00
 -13.300  0.0000E+00  0.0000E+00
 -13.290  0.0000E+00  0.0000E+00
 -13.280  0.0000E+00  0.0000E+00
 -13.270  0.0000E+00  0.0000E+00
 -13.260  0.0000E+00  0.0000E+00
 -13.250  0.0000E+00  0.0000E+00
 -13.240  0.0000E+00  0.0000E+00
 -13.230  0.0000E+00  0.0000E+00
 -13.220  0.0000E+00  0.0000E+00
 -13.210  0.0000E+00  0.0000E+00
 -13.200  0.0000E+00  0.0000E+00
 -13.190  0.0000E+00  0.0000E+00
 -13.180  0.0000E+00  0.0000E+00
 -13.170  0.0000E+00  0.0000E+00
 -13.160  0.0000E+00  0.0000E+00
 -13.150  0.0000E+00  0.0000E+00
 -13.140  0.0000E+00  0.0000E+00
 -13.130  0.0000E+00  0.0000E+00
 -13.120  0.0000E+00  0.0000E+00
 -13.110  0.0000E+00  0.0000E+00
 -13.100  0.0000E+00  0.0000E+00
 -13.090  0.0000E+00  0.0000E+00
 -13.080  0.0000E+00  0.0000E+00
 -13.070  0.0000E+00  0.0000E+00
 -13.060  0.0000E+00  0.0000E+00
 -13.050  0.0000E+00  0.0000E+00
 -13.040  0.0000E+00  0.0000E+00
 -13.030  0.0000E+00  0.0000E+00
 -13.020  0.0000E+00  0.0000E+00
 -13.010  0.0000E+00  0.0000E+00
 -13.000  0.0000E+00  0.0000E+00
 -12.990  0.0000E+00  0.0000E+00
 -12.980  0.0000E+00  0.0000E+00
 -12.970  0.0000E+00  0.0000E+00
 -12.960  0.0000E+00  0.0000E+00
 -12.950  0.0000E+00  0.0000E+00
 -12.940  0.0000E+00  0.0000E+00
 -12.930  0.0000E+00  0.0000E+00
 -12.920  0.0000E+00  0.0000E+00
 -12.910  0.0000E+00  0.0000E+00
 -12.900  0.0000E+00  0.0000E+00
 -12.890  0.0000E+00  0.0000E+00
 -12.880  0.0000E+00  0.0000E+00
 -12.870  0.0000E+00  0.0000E+00
 -12.860  0.0000E+00  0.0000E+00
 -12.850  0.0000E+00  0.0000E+00
 -12.840  0.0000E+00  0.0000E+00
 -12.830  0.0000E+00  0.0000E+00
 -12.820  0.0000E+00  0.0000E+00
 -12.810  0.0000E+00  0.0000E+00
 -12.800  0.0000E+00  0.0000E+00
 -12.790  0.0000E+00  0.0000E+00
 -12.780  0.0000E+00  0.0000E+00
 -12.770  0.0000E+00  0.0000E+00
 -12.760  0.0000E+00  0.0000E+00
 -12.750  0.0000E+00  0.0000E+00
 -12.740  0.0000E+00  0.0000E+00
 -12.730  0.0000E+00  0.0000E+00
 -12.720  0.0000E+00  0.0000E+00
 -12.710  0.0000E+00  0.0000E+00
 -12.700  0.0000E+00  0.0000E+00
 -12.690  0.0000E+00  0.0000E+00
 -12.680  0.0000E+00  0.0000E+00
 -12.670  0.0000E+00  0.0000E+00
 -12.660  0.0000E+00  0.0000E+00
 -12.650  0.0000E+00  0.0000E+00
 -12.640  0.0000E+00  0.0000E+00
 -12.630  0.0000E+00  0.0000E+00
 -12.620  0.0000E+00  0.0000E+00
 -12.610  0.0000E+00  0.0000E+00
 -12.600  0.0000E+00  0.0000E+00
 -12.590  0.0000E+00  0.0000E+00
 -12.580  0.0000E+00  0.0000E+00
 -12.570  0.0000E+00  0.0000E+00
 -12.560  0.0000E+00  0.0000E+00
 -12.550  0.0000E+00  0.0000E+00
 -12.540  0.0000E+00  0.0000E+00
 -12.530  0.0000E+00  0.0000E+00
 -12.520  0.0000E+00  0.0000E+00
 -12.510  0.0000E+00  0.0000E+00
 -12.500  0.0000E+00  0.0000E+00
 -12.490  0.0000E+00  0.0000E+00
 -12.480  0.0000E+00  0.0000E+00
 -12.470  0.0000E+00  0.0000E+00
 -12.460  0.0000E+00  0.0000E+00
 -12.450  0.0000E+00  0.0000E+00
 -12.440  0.0000E+00  0.0000E+00
 -12.430  0.0000E+00  0.0000E+00
 -12.420  0.0000E+00  0.0000E+00
 -12.410  0.0000E+00  0.0000E+00
 -12.400  0.0000E+00  0.0000E+00
 -12.390  0.0000E+00  0.0000E+00
 -12.380  0.0000E+00  0.0000E+00
 -12.370  0.0000E+00  0.0000E+00
 -12.360  0.0000E+00  0.0000E+00
 -12.350  0.0000E+00  0.0000E+00
 -12.340  0.0000E+00  0.0000E+00
 -12.330  0.0000E+00  0.0000E+00
 -12.320  0.0000E+00  0.0000E+00
 -12.310  0.0000E+00  0.0000E+00
 -12.300  0.0000E+00  0.0000E+00
 -12.290  0.0000E+00  0.0000E+00
 -12.280  0.0000E+00  0.0000E+00
 -12.270  0.0000E+00  0.0000E+00
 -12.260  0.0000E+00  0.0000E+00
 -12.250  0.0000E+00  0.0000E+00
 -12.240  0.0000E+00  0.0000E+00
 -12.230  0.0000E+00  0.0000E+00
 -12.220  0.0000E+00  0.0000E+00
 -12.210  0.0000E+00  0.0000E+00
 -12.200  0.0000E+00  0.0000E+00
 -12.190  0.0000E+00  0.0000E+00
 -12.180  0.0000E+00  0.0000E+00
 -12.170  0.0000E+00  0.0000E+00
 -12.160  0.0000E+00  0.0000E+00
 -12.150  0.0000E+00  0.0000E+00
 -12.140  0.0000E+00  0.0000E+00
 -12.130  0.0000E+00  0.0000E+00
 -12.120  0.0000E+00  0.0000E+00
 -12.110  0.0000E+00  0.0000E+00
 -12.100  0.0000E+00  0.0000E+00
 -12.090  0.0000E+00  0.0000E+00
 -12.080  0.0000E+00  0.0000E+00
 -12.070  0.0000E+00  0.0000E+00
 -12.060  0.0000E+00  0.0000E+00
 -12.050  0.0000E+00  0.0000E+00
 -12.040  0.0000E+00  0.0000E+00
 -12.030  0.0000E+00  0.0000E+00
 -12.020  0.0000E+00  0.0000E+00
 -12.010  0.0000E+00  0.0000E+00
 -12.000  0.0000E+00  0.0000E+00
 -11.990  0.0000E+00  0.0000E+00
 -11.980  0.0000E+00  0.0000E+00
 -11.970  0.0000E+00  0.0000E+00
 -11.960  0.0000E+00  0.0000E+00
 -11.950  0.0000E+00  0.0000E+00
 -11.940  0.0000E+00  0.0000E+00
 -11.930  0.0000E+00  0.0000E+00
 -11.920  0.0000E+00  0.0000E+00
 -11.910  0.0000E+00  0.0000E+00
 -11.900  0.0000E+00  0.0000E+00
 -11.890  0.0000E+00  0.0000E+00
 -11.880  0.0000E+00  0.0000E+00
 -11.870  0.0000E+00  0.0000E+00
 -11.860  0.0000E+00  0.0000E+00
 -11.850  0.0000E+00  0.0000E+00
 -11.840  0.0000E+00  0.0000E+00
 -11.830  0.0000E+00  0.0000E+00
 -11.820  0.0000E+00  0.0000E+00
 -11.810  0.0000E+00  0.0000E+00
 -11.800  0.0000E+00  0.0000E+00
 -11.790  0.0000E+00  0.0000E+00
 -11.780  0.0000E+00  0.0000E+00
 -11.770  0.0000E+00  0.0000E+00
 -11.760  0.0000E+00  0.0000E+00
 -11.750  0.0000E+00  0.0000E+00
 -11.740  0.0000E+00  0.0000E+00
 -11.730  0.0000E+00  0.0000E+00
 -11.720  0.0000E+00  0.0000E+00
 -11.710  0.0000E+00  0.0000E+00
 -11.700  0.0000E+00  0.0000E+00
 -11.690  0.0000E+00  0.0000E+00
 -11.680  0.0000E+00  0.0000E+00
 -11.670  0.0000E+00  0.0000E+00
 -11.660  0.0000E+00  0.0000E+00
 -11.650  0.0000E+00  0.0000E+00
 -11.640  0.0000E+00  0.0000E+00
 -11.630  0.0000E+00  0.0000E+00
 -11.620  0.0000E+00  0.0000E+00
 -11.610  0.0000E+00  0.0000E+00
 -11.600  0.0000E+00  0.0000E+00
 -11.590  0.0000E+00  0.0000E+00
 -11.580  0.0000E+00  0.0000E+00
 -11.570  0.0000E+00  0.0000E+00
 -11.560  0.0000E+00  0.0000E+00
 -11.550  0.0000E+00  0.0000E+00
 -11.540  0.0000E+00  0.0000E+00
 -11.530  0.0000E+00  0.0000E+00
 -11.520  0.0000E+00  0.0000E+00
 -11.510  0.0000E+00  0.0000E+00
 -11.500  0.0000E+00  0.0000E+00
 -11.490  0.0000E+00  0.0000E+00
 -11.480  0.0000E+00  0.0000E+00
 -11.470  0.0000E+00  0.0000E+00
 -11.460  0.0000E+00  0.0000E+00
 -11.450  0.0000E+00  0.0000E+00
 -11.440  0.0000E+00  0.0000E+00
 -11.430  0.0000E+00  0.0000E+00
 -11.420  0.0000E+00  0.0000E+00
 -11.410  0.0000E+00  0.0000E+00
 -11.400  0.0000E+00  0.0000E+00
 -11.390  0.0000E+00  0.0000E+00
 -11.380  0.0000E+00  0.0000E+00
 -11.370  0.0000E+00  0.0000E+00
 -11.360  0.0000E+00  0.0000E+00
 -11.350  0.0000E+00  0.0000E+00
 -11.340  0.0000E+00  0.0000E+00
 -11.330  0.0000E+00  0.0000E+00
 -11.320  0.0000E+00  0.0000E+00
 -11.310  0.0000E+00  0.0000E+00
 -11.300  0.0000E+00  0.0000E+00
 -11.290  0.0000E+00  0.0000E+00
 -11.280  0.0000E+00  0.0000E+00
 -11.270  0.0000E+00  0.0000E+00
 -11.260  0.0000E+00  0.0000E+00
 -11.250  0.0000E+00  0.0000E+00
 -11.240  0.0000E+00  0.0000E+00
 -11.230  0.0000E+00  0.0000E+00
 -11.220  0.0000E+00  0.0000E+00
 -11.210  0.0000E+00  0.0000E+00
 -11.200  0.0000E+00  0.0000E+00
 -11.190  0.0000E+00  0.0000E+00
 -11.180  0.0000E+00  0.0000E+00
 -11.170  0.0000E+00  0.0000E+00
 -11.160  0.0000E+00  0.0000E+00
 -11.150  0.0000E+00  0.0000E+00
 -11.140  0.0000E+00  0.0000E+00
 -11.130  0.0000E+00  0.0000E+00
 -11.120  0.0000E+00  0.0000E+00
 -11.110  0.0000E+00  0.0000E+00
 -11.100  0.0000E+00  0.0000E+00
 -11.090  0.0000E+00  0.0000E+00
 -11.080  0.0000E+00  0.0000E+00
 -11.070  0.0000E+00  0.0000E+00
 -11.060  0.0000E+00  0.0000E+00
 -11.050  0.0000E+00  0.0000E+00
 -11.040  0.0000E+00  0.0000E+00
 -11.030  0.0000E+00  0.0000E+00
 -11.020  0.0000E+00  0.0000E+00
 -11.010  0.0000E+00  0.0000E+00
 -11.000  0.0000E+00  0.0000E+00
 -10.990  0.0000E+00  0.0000E+00
 -10.980  0.0000E+00  0.0000E+00
 -10.970  0.0000E+00  0.0000E+00
 -10.960  0.0000E+00  0.0000E+00
 -10.950  0.0000E+00  0.0000E+00
 -10.940  0.0000E+00  0.0000E+00
 -10.930  0.0000E+00  0.0000E+00
 -10.920  0.0000E+00  0.0000E+00
 -10.910  0.0000E+00  0.0000E+00
 -10.900  0.0000E+00  0.0000E+00
 -10.890  0.0000E+00  0.0000E+00
 -10.880  0.0000E+00  0.0000E+00
 -10.870  0.0000E+00  0.0000E+00
 -10.860  0.0000E+00  0.0000E+00
 -10.850  0.0000E+00  0.0000E+00
 -10.840  0.0000E+00  0.0000E+00
 -10.830  0.0000E+00  0.0000E+00
 -10.820  0.0000E+00  0.0000E+00
 -10.810  0.0000E+00  0.0000E+00
 -10.800  0.0000E+00  0.0000E+00
 -10.790  0.0000E+00  0.0000E+00
 -10.780  0.0000E+00  0.0000E+00
 -10.770  0.0000E+00  0.0000E+00
 -10.760  0.0000E+00  0.0000E+00
 -10.750  0.0000E+00  0.0000E+00
 -10.740  0.0000E+00  0.0000E+00
 -10.730  0.0000E+00  0.0000E+00
 -10.720  0.0000E+00  0.0000E+00
 -10.710  0.0000E+00  0.0000E+00
 -10.700  0.0000E+00  0.0000E+00
 -10.690  0.0000E+00  0.0000E+00
 -10.680  0.0000E+00  0.0000E+00
 -10.670  0.0000E+00  0.0000E+00
 -10.660  0.0000E+00  0.0000E+00
 -10.650  0.0000E+00  0.0000E+00
 -10.640  0.0000E+00  0.0000E+00
 -10.630  0.0000E+00  0.0000E+00
 -10.620  0.0000E+00  0.0000E+00
 -10.610  0.0000E+00  0.0000E+00
 -10.600  0.0000E+00  0.0000E+00
 -10.590  0.0000E+00  0.0000E+00
 -10.580  0.0000E+00  0.0000E+00
 -10.570  0.0000E+00  0.0000E+00
 -10.560  0.0000E+00  0.0000E+00
 -10.550  0.0000E+00  0.0000E+00
 -10.540  0.0000E+00  0.0000E+00
 -10.530  0.0000E+00  0.0000E+00
 -10.520  0.0000E+00  0.0000E+00
 -10.510  0.0000E+00  0.0000E+00
 -10.500  0.0000E+00  0.0000E+00
 -10.490  0.0000E+00  0.0000E+00
 -10.480  0.0000E+00  0.0000E+00
 -10.470  0.0000E+00  0.0000E+00
 -10.460  0.0000E+00  0.0000E+00
 -10.450  0.0000E+00  0.0000E+00
 -10.440  0.0000E+00  0.0000E+00
 -10.430  0.0000E+00  0.0000E+00
 -10.420  0.0000E+00  0.0000E+00
 -10.410  0.0000E+00  0.0000E+00
 -10.400  0.0000E+00  0.0000E+00
 -10.390  0.0000E+00  0.0000E+00
 -10.380  0.0000E+00  0.0000E+00
 -10.370  0.0000E+00  0.0000E+00
 -10.360  0.0000E+00  0.0000E+00
 -10.350  0.0000E+00  0.0000E+00
 -10.340  0.0000E+00  0.0000E+00
 -10.330  0.0000E+00  0.0000E+00
 -10.320  0.0000E+00  0.0000E+00
 -10.310  0.0000E+00  0.0000E+00
 -10.300  0.0000E+00  0.0000E+00
 -10.290  0.0000E+00  0.0000E+00
 -10.280  0.0000E+00  0.0000E+00
 -10.270  0.0000E+00  0.0000E+00
 -10.260  0.0000E+00  0.0000E+00
 -10.250  0.0000E+00  0.0000E+00
 -10.240  0.0000E+00  0.0000E+00
 -10.230  0.0000E+00  0.0000E+00
 -10.220  0.0000E+00  0.0000E+00
 -10.210  0.0000E+00  0.0000E+00
 -10.200  0.0000E+00  0.0000E+00
 -10.190  0.0000E+00  0.0000E+00
 -10.180  0.0000E+00  0.0000E+00
 -10.170  0.0000E+00  0.0000E+00
 -10.160  0.0000E+00  0.0000E+00
 -10.150  0.0000E+00  0.0000E+00
 -10.140  0.0000E+00  0.0000E+00
 -10.130  0.0000E+00  0.0000E+00
 -10.120  0.0000E+00  0.0000E+00
 -10.110  0.0000E+00  0.0000E+00
 -10.100  0.0000E+00  0.0000E+00
 -10.090  0.0000E+00  0.0000E+00
 -10.080  0.3273E-01  0.1857E-04
 -10.070  0.5846E+00  0.4201E-02
 -10.060  0.1009E+01  0.1440E-01
 -10.050  0.1070E+01  0.2533E-01
 -10.040  0.1120E+01  0.3639E-01
 -10.030  0.1079E+01  0.4735E-01
 -10.020  0.1137E+01  0.5841E-01
 -10.010  0.1109E+01  0.6966E-01
 -10.000  0.1085E+01  0.8049E-01
  -9.990  0.1138E+01  0.9157E-01
  -9.980  0.1134E+01  0.1029E+00
  -9.970  0.1555E+01  0.1173E+00
  -9.960  0.2153E+01  0.1373E+00
  -9.950  0.2268E+01  0.1596E+00
  -9.940  0.2270E+01  0.1822E+00
  -9.930  0.2206E+01  0.2046E+00
  -9.920  0.2264E+01  0.2269E+00
  -9.910  0.2285E+01  0.2496E+00
  -9.900  0.2256E+01  0.2721E+00
  -9.890  0.2289E+01  0.2948E+00
  -9.880  0.2269E+01  0.3176E+00
  -9.870  0.2231E+01  0.3401E+00
  -9.860  0.2271E+01  0.3625E+00
  -9.850  0.2326E+01  0.3855E+00
  -9.840  0.2311E+01  0.4087E+00
  -9.830  0.2254E+01  0.4314E+00
  -9.820  0.2269E+01  0.4540E+00
  -9.810  0.2295E+01  0.4768E+00
  -9.800  0.2314E+01  0.4999E+00
  -9.790  0.2321E+01  0.5232E+00
  -9.780  0.2302E+01  0.5463E+00
  -9.770  0.2289E+01  0.5692E+00
  -9.760  0.2314E+01  0.5921E+00
  -9.750  0.2333E+01  0.6154E+00
  -9.740  0.2325E+01  0.6387E+00
  -9.730  0.2326E+01  0.6619E+00
  -9.720  0.2339E+01  0.6852E+00
  -9.710  0.2333E+01  0.7086E+00
  -9.700  0.2342E+01  0.7320E+00
  -9.690  0.2349E+01  0.7555E+00
  -9.680  0.2341E+01  0.7789E+00
  -9.670  0.2343E+01  0.8024E+00
  -9.660  0.2359E+01  0.8259E+00
  -9.650  0.2374E+01  0.8495E+00
  -9.640  0.2375E+01  0.8733E+00
  -9.630  0.2384E+01  0.8971E+00
  -9.620  0.2384E+01  0.9209E+00
  -9.610  0.2368E+01  0.9447E+00
  -9.600  0.2370E+01  0.9684E+00
  -9.590  0.2388E+01  0.9921E+00
  -9.580  0.2409E+01  0.1016E+01
  -9.570  0.2422E+01  0.1040E+01
  -9.560  0.2420E+01  0.1065E+01
  -9.550  0.2416E+01  0.1089E+01
  -9.540  0.2411E+01  0.1113E+01
  -9.530  0.2413E+01  0.1137E+01
  -9.520  0.2417E+01  0.1161E+01
  -9.510  0.2429E+01  0.1185E+01
  -9.500  0.2452E+01  0.1210E+01
  -9.490  0.2474E+01  0.1234E+01
  -9.480  0.2475E+01  0.1259E+01
  -9.470  0.2455E+01  0.1284E+01
  -9.460  0.2450E+01  0.1308E+01
  -9.450  0.2460E+01  0.1333E+01
  -9.440  0.2469E+01  0.1357E+01
  -9.430  0.2478E+01  0.1382E+01
  -9.420  0.2490E+01  0.1407E+01
  -9.410  0.2509E+01  0.1432E+01
  -9.400  0.2529E+01  0.1457E+01
  -9.390  0.2521E+01  0.1482E+01
  -9.380  0.2506E+01  0.1508E+01
  -9.370  0.2508E+01  0.1533E+01
  -9.360  0.2515E+01  0.1558E+01
  -9.350  0.2529E+01  0.1583E+01
  -9.340  0.2542E+01  0.1608E+01
  -9.330  0.2555E+01  0.1634E+01
  -9.320  0.2570E+01  0.1659E+01
  -9.310  0.2581E+01  0.1685E+01
  -9.300  0.2577E+01  0.1711E+01
  -9.290  0.2573E+01  0.1737E+01
  -9.280  0.2576E+01  0.1763E+01
  -9.270  0.2583E+01  0.1788E+01
  -9.260  0.2594E+01  0.1814E+01
  -9.250  0.2606E+01  0.1840E+01
  -9.240  0.2622E+01  0.1866E+01
  -9.230  0.2637E+01  0.1893E+01
  -9.220  0.2647E+01  0.1919E+01
  -9.210  0.2651E+01  0.1946E+01
  -9.200  0.2649E+01  0.1972E+01
  -9.190  0.2650E+01  0.1999E+01
  -9.180  0.2659E+01  0.2025E+01
  -9.170  0.2668E+01  0.2052E+01
  -9.160  0.2680E+01  0.2078E+01
  -9.150  0.2696E+01  0.2105E+01
  -9.140  0.2709E+01  0.2132E+01
  -9.130  0.2724E+01  0.2160E+01
  -9.120  0.2733E+01  0.2187E+01
  -9.110  0.2737E+01  0.2214E+01
  -9.100  0.2741E+01  0.2242E+01
  -9.090  0.2746E+01  0.2269E+01
  -9.080  0.2753E+01  0.2296E+01
  -9.070  0.2766E+01  0.2324E+01
  -9.060  0.2779E+01  0.2352E+01
  -9.050  0.2795E+01  0.2380E+01
  -9.040  0.2813E+01  0.2408E+01
  -9.030  0.2825E+01  0.2436E+01
  -9.020  0.2831E+01  0.2464E+01
  -9.010  0.2842E+01  0.2493E+01
  -9.000  0.2850E+01  0.2521E+01
  -8.990  0.2859E+01  0.2550E+01
  -8.980  0.2871E+01  0.2578E+01
  -8.970  0.2881E+01  0.2607E+01
  -8.960  0.2894E+01  0.2636E+01
  -8.950  0.2912E+01  0.2665E+01
  -8.940  0.2931E+01  0.2694E+01
  -8.930  0.2947E+01  0.2723E+01
  -8.920  0.2957E+01  0.2753E+01
  -8.910  0.2968E+01  0.2783E+01
  -8.900  0.2978E+01  0.2812E+01
  -8.890  0.2989E+01  0.2842E+01
  -8.880  0.3006E+01  0.2872E+01
  -8.870  0.3023E+01  0.2902E+01
  -8.860  0.3038E+01  0.2933E+01
  -8.850  0.3052E+01  0.2963E+01
  -8.840  0.3071E+01  0.2994E+01
  -8.830  0.3092E+01  0.3024E+01
  -8.820  0.3109E+01  0.3055E+01
  -8.810  0.3125E+01  0.3087E+01
  -8.800  0.3141E+01  0.3118E+01
  -8.790  0.3151E+01  0.3149E+01
  -8.780  0.3166E+01  0.3181E+01
  -8.770  0.3189E+01  0.3213E+01
  -8.760  0.3213E+01  0.3245E+01
  -8.750  0.3233E+01  0.3277E+01
  -8.740  0.3252E+01  0.3309E+01
  -8.730  0.3270E+01  0.3342E+01
  -8.720  0.3291E+01  0.3375E+01
  -8.710  0.3316E+01  0.3408E+01
  -8.700  0.3340E+01  0.3441E+01
  -8.690  0.3361E+01  0.3475E+01
  -8.680  0.3377E+01  0.3508E+01
  -8.670  0.3398E+01  0.3542E+01
  -8.660  0.3427E+01  0.3576E+01
  -8.650  0.3458E+01  0.3611E+01
  -8.640  0.3485E+01  0.3646E+01
  -8.630  0.3509E+01  0.3681E+01
  -8.620  0.3530E+01  0.3716E+01
  -8.610  0.3557E+01  0.3751E+01
  -8.600  0.3593E+01  0.3787E+01
  -8.590  0.3625E+01  0.3823E+01
  -8.580  0.3654E+01  0.3859E+01
  -8.570  0.3680E+01  0.3896E+01
  -8.560  0.3710E+01  0.3933E+01
  -8.550  0.3749E+01  0.3970E+01
  -8.540  0.3791E+01  0.4008E+01
  -8.530  0.3825E+01  0.4046E+01
  -8.520  0.3857E+01  0.4084E+01
  -8.510  0.3890E+01  0.4123E+01
  -8.500  0.3935E+01  0.4162E+01
  -8.490  0.3983E+01  0.4202E+01
  -8.480  0.4026E+01  0.4242E+01
  -8.470  0.4067E+01  0.4282E+01
  -8.460  0.4107E+01  0.4323E+01
  -8.450  0.4161E+01  0.4365E+01
  -8.440  0.4219E+01  0.4406E+01
  -8.430  0.4270E+01  0.4449E+01
  -8.420  0.4319E+01  0.4492E+01
  -8.410  0.4371E+01  0.4535E+01
  -8.400  0.4439E+01  0.4579E+01
  -8.390  0.4509E+01  0.4624E+01
  -8.380  0.4576E+01  0.4670E+01
  -8.370  0.4637E+01  0.4716E+01
  -8.360  0.4713E+01  0.4762E+01
  -8.350  0.4801E+01  0.4810E+01
  -8.340  0.4882E+01  0.4858E+01
  -8.330  0.4961E+01  0.4908E+01
  -8.320  0.5057E+01  0.4958E+01
  -8.310  0.5164E+01  0.5009E+01
  -8.300  0.5275E+01  0.5061E+01
  -8.290  0.5391E+01  0.5114E+01
  -8.280  0.5523E+01  0.5169E+01
  -8.270  0.5665E+01  0.5225E+01
  -8.260  0.5807E+01  0.5282E+01
  -8.250  0.5972E+01  0.5341E+01
  -8.240  0.6167E+01  0.5402E+01
  -8.230  0.6368E+01  0.5464E+01
  -8.220  0.6617E+01  0.5529E+01
  -8.210  0.6895E+01  0.5597E+01
  -8.200  0.7271E+01  0.5667E+01
  -8.190  0.7720E+01  0.5742E+01
  -8.180  0.8346E+01  0.5822E+01
  -8.170  0.1020E+02  0.5912E+01
  -8.160  0.1000E+02  0.6013E+01
  -8.150  0.9265E+01  0.6108E+01
  -8.140  0.9109E+01  0.6199E+01
  -8.130  0.9791E+01  0.6293E+01
  -8.120  0.1020E+02  0.6395E+01
  -8.110  0.9199E+01  0.6493E+01
  -8.100  0.8327E+01  0.6578E+01
  -8.090  0.7704E+01  0.6658E+01
  -8.080  0.7280E+01  0.6732E+01
  -8.070  0.7004E+01  0.6804E+01
  -8.060  0.6666E+01  0.6872E+01
  -8.050  0.6456E+01  0.6937E+01
  -8.040  0.6151E+01  0.7000E+01
  -8.030  0.6021E+01  0.7061E+01
  -8.020  0.5872E+01  0.7121E+01
  -8.010  0.5755E+01  0.7179E+01
  -8.000  0.5596E+01  0.7236E+01
  -7.990  0.5426E+01  0.7291E+01
  -7.980  0.5276E+01  0.7344E+01
  -7.970  0.5196E+01  0.7397E+01
  -7.960  0.5184E+01  0.7448E+01
  -7.950  0.5029E+01  0.7499E+01
  -7.940  0.4887E+01  0.7549E+01
  -7.930  0.4741E+01  0.7597E+01
  -7.920  0.4799E+01  0.7644E+01
  -7.910  0.4741E+01  0.7692E+01
  -7.900  0.4529E+01  0.7738E+01
  -7.890  0.4528E+01  0.7783E+01
  -7.880  0.4507E+01  0.7827E+01
  -7.870  0.4514E+01  0.7872E+01
  -7.860  0.3430E+01  0.7913E+01
  -7.850  0.2152E+01  0.7942E+01
  -7.840  0.2038E+01  0.7964E+01
  -7.830  0.1963E+01  0.7985E+01
  -7.820  0.1001E+01  0.7999E+01
  -7.810  0.0000E+00  0.8000E+01
  -7.800  0.0000E+00  0.8000E+01
  -7.790  0.0000E+00  0.8000E+01
  -7.780  0.0000E+00  0.8000E+01
  -7.770  0.0000E+00  0.8000E+01
  -7.760  0.0000E+00  0.8000E+01
  -7.750  0.0000E+00  0.8000E+01
  -7.740  0.0000E+00  0.8000E+01
  -7.730  0.0000E+00  0.8000E+01
  -7.720  0.0000E+00  0.8000E+01
  -7.710  0.0000E+00  0.8000E+01
  -7.700  0.0000E+00  0.8000E+01
  -7.690  0.0000E+00  0.8000E+01
  -7.680  0.0000E+00  0.8000E+01
  -7.670  0.0000E+00  0.8000E+01
  -7.660  0.0000E+00  0.8000E+01
  -7.650  0.0000E+00  0.8000E+01
  -7.640  0.0000E+00  0.8000E+01
  -7.630  0.0000E+00  0.8000E+01
  -7.620  0.0000E+00  0.8000E+01
  -7.610  0.0000E+00  0.8000E+01
  -7.600  0.0000E+00  0.8000E+01
  -7.590  0.0000E+00  0.8000E+01
  -7.580  0.0000E+00  0.8000E+01
  -7.570  0.0000E+00  0.8000E+01
  -7.560  0.0000E+00  0.8000E+01
  -7.550  0.0000E+00  0.8000E+01
  -7.540  0.0000E+00  0.8000E+01
  -7.530  0.0000E+00  0.8000E+01
  -7.520  0.0000E+00  0.8000E+01
  -7.510  0.0000E+00  0.8000E+01
  -7.500  0.0000E+00  0.8000E+01
  -7.490  0.0000E+00  0.8000E+01
  -7.480  0.0000E+00  0.8000E+01
  -7.470  0.0000E+00  0.8000E+01
  -7.460  0.0000E+00  0.8000E+01
  -7.450  0.0000E+00  0.8000E+01
  -7.440  0.0000E+00  0.8000E+01
  -7.430  0.0000E+00  0.8000E+01
  -7.420  0.0000E+00  0.8000E+01
  -7.410  0.0000E+00  0.8000E+01
  -7.400  0.0000E+00  0.8000E+01
  -7.390  0.0000E+00  0.8000E+01
  -7.380  0.0000E+00  0.8000E+01
  -7.370  0.0000E+00  0.8000E+01
  -7.360  0.0000E+00  0.8000E+01
  -7.350  0.0000E+00  0.8000E+01
  -7.340  0.0000E+00  0.8000E+01
  -7.330  0.0000E+00  0.8000E+01
  -7.320  0.0000E+00  0.8000E+01
  -7.310  0.0000E+00  0.8000E+01
  -7.300  0.0000E+00  0.8000E+01
  -7.290  0.0000E+00  0.8000E+01
  -7.280  0.0000E+00  0.8000E+01
  -7.270  0.0000E+00  0.8000E+01
  -7.260  0.0000E+00  0.8000E+01
  -7.250  0.0000E+00  0.8000E+01
  -7.240  0.0000E+00  0.8000E+01
  -7.230  0.0000E+00  0.8000E+01
  -7.220  0.0000E+00  0.8000E+01
  -7.210  0.0000E+00  0.8000E+01
  -7.200  0.0000E+00  0.8000E+01
  -7.190  0.0000E+00  0.8000E+01
  -7.180  0.0000E+00  0.8000E+01
  -7.170  0.0000E+00  0.8000E+01
  -7.160  0.0000E+00  0.8000E+01
  -7.150  0.0000E+00  0.8000E+01
  -7.140  0.0000E+00  0.8000E+01
  -7.130  0.0000E+00  0.8000E+01
  -7.120  0.0000E+00  0.8000E+01
  -7.110  0.0000E+00  0.8000E+01
  -7.100  0.0000E+00  0.8000E+01
  -7.090  0.0000E+00  0.8000E+01
  -7.080  0.0000E+00  0.8000E+01
  -7.070  0.0000E+00  0.8000E+01
  -7.060  0.0000E+00  0.8000E+01
  -7.050  0.0000E+00  0.8000E+01
  -7.040  0.0000E+00  0.8000E+01
  -7.030  0.0000E+00  0.8000E+01
  -7.020  0.0000E+00  0.8000E+01
  -7.010  0.0000E+00  0.8000E+01
  -7.000  0.0000E+00  0.8000E+01
  -6.990  0.0000E+00  0.8000E+01
  -6.980  0.0000E+00  0.8000E+01
  -6.970  0.0000E+00  0.8000E+01
  -6.960  0.0000E+00  0.8000E+01
  -6.950  0.0000E+00  0.8000E+01
  -6.940  0.0000E+00  0.8000E+01
  -6.930  0.0000E+00  0.8000E+01
  -6.920  0.0000E+00  0.8000E+01
  -6.910  0.0000E+00  0.8000E+01
  -6.900  0.0000E+00  0.8000E+01
  -6.890  0.0000E+00  0.8000E+01
  -6.880  0.0000E+00  0.8000E+01
  -6.870  0.0000E+00  0.8000E+01
  -6.860  0.0000E+00  0.8000E+01
  -6.850  0.0000E+00  0.8000E+01
  -6.840  0.0000E+00  0.8000E+01
  -6.830  0.0000E+00  0.8000E+01
  -6.820  0.0000E+00  0.8000E+01
  -6.810  0.0000E+00  0.8000E+01
  -6.800  0.0000E+00  0.8000E+01
  -6.790  0.0000E+00  0.8000E+01
  -6.780  0.0000E+00  0.8000E+01
  -6.770  0.0000E+00  0.8000E+01
  -6.760  0.0000E+00  0.8000E+01
  -6.750  0.0000E+00  0.8000E+01
  -6.740  0.0000E+00  0.8000E+01
  -6.730  0.0000E+00  0.8000E+01
  -6.720  0.0000E+00  0.8000E+01
  -6.710  0.0000E+00  0.8000E+01
  -6.700  0.0000E+00  0.8000E+01
  -6.690  0.0000E+00  0.8000E+01
  -6.680  0.0000E+00  0.8000E+01
  -6.670  0.0000E+00  0.8000E+01
  -6.660  0.0000E+00  0.8000E+01
  -6.650  0.0000E+00  0.8000E+01
  -6.640  0.0000E+00  0.8000E+01
  -6.630  0.0000E+00  0.8000E+01
  -6.620  0.0000E+00  0.8000E+01
  -6.610  0.0000E+00  0.8000E+01
  -6.600  0.0000E+00  0.8000E+01
  -6.590  0.0000E+00  0.8000E+01
  -6.580  0.0000E+00  0.8000E+01
  -6.570  0.0000E+00  0.8000E+01
  -6.560  0.0000E+00  0.8000E+01
  -6.550  0.0000E+00  0.8000E+01
  -6.540  0.0000E+00  0.8000E+01
  -6.530  0.0000E+00  0.8000E+01
  -6.520  0.0000E+00  0.8000E+01
  -6.510  0.0000E+00  0.8000E+01
  -6.500  0.0000E+00  0.8000E+01
  -6.490  0.0000E+00  0.8000E+01
  -6.480  0.0000E+00  0.8000E+01
  -6.470  0.0000E+00  0.8000E+01
  -6.460  0.0000E+00  0.8000E+01
  -6.450  0.0000E+00  0.8000E+01
  -6.440  0.0000E+00  0.8000E+01
  -6.430  0.0000E+00  0.8000E+01
  -6.420  0.0000E+00  0.8000E+01
  -6.410  0.0000E+00  0.8000E+01
  -6.400  0.0000E+00  0.8000E+01
  -6.390  0.0000E+00  0.8000E+01
  -6.380  0.0000E+00  0.8000E+01
  -6.370  0.0000E+00  0.8000E+01
  -6.360  0.0000E+00  0.8000E+01
  -6.350  0.0000E+00  0.8000E+01
  -6.340  0.0000E+00  0.8000E+01
  -6.330  0.0000E+00  0.8000E+01
  -6.320  0.0000E+00  0.8000E+01
  -6.310  0.0000E+00  0.8000E+01
  -6.300  0.0000E+00  0.8000E+01
  -6.290  0.0000E+00  0.8000E+01
  -6.280  0.0000E+00  0.8000E+01
  -6.270  0.0000E+00  0.8000E+01
  -6.260  0.0000E+00  0.8000E+01
  -6.250  0.0000E+00  0.8000E+01
  -6.240  0.0000E+00  0.8000E+01
  -6.230  0.0000E+00  0.8000E+01
  -6.220  0.0000E+00  0.8000E+01
  -6.210  0.0000E+00  0.8000E+01
  -6.200  0.0000E+00  0.8000E+01
  -6.190  0.0000E+00  0.8000E+01
  -6.180  0.0000E+00  0.8000E+01
  -6.170  0.0000E+00  0.8000E+01
  -6.160  0.0000E+00  0.8000E+01
  -6.150  0.0000E+00  0.8000E+01
  -6.140  0.0000E+00  0.8000E+01
  -6.130  0.0000E+00  0.8000E+01
  -6.120  0.0000E+00  0.8000E+01
  -6.110  0.0000E+00  0.8000E+01
  -6.100  0.0000E+00  0.8000E+01
  -6.090  0.0000E+00  0.8000E+01
  -6.080  0.0000E+00  0.8000E+01
  -6.070  0.0000E+00  0.8000E+01
  -6.060  0.0000E+00  0.8000E+01
  -6.050  0.0000E+00  0.8000E+01
  -6.040  0.0000E+00  0.8000E+01
  -6.030  0.0000E+00  0.8000E+01
  -6.020  0.0000E+00  0.8000E+01
  -6.010  0.0000E+00  0.8000E+01
  -6.000  0.0000E+00  0.8000E+01
  -5.990  0.0000E+00  0.8000E+01
  -5.980  0.0000E+00  0.8000E+01
  -5.970  0.0000E+00  0.8000E+01
  -5.960  0.0000E+00  0.8000E+01
  -5.950  0.0000E+00  0.8000E+01
  -5.940  0.0000E+00  0.8000E+01
  -5.930  0.0000E+00  0.8000E+01
  -5.920  0.0000E+00  0.8000E+01
  -5.910  0.0000E+00  0.8000E+01
  -5.900  0.0000E+00  0.8000E+01
  -5.890  0.0000E+00  0.8000E+01
  -5.880  0.0000E+00  0.8000E+01
  -5.870  0.0000E+00  0.8000E+01
  -5.860  0.0000E+00  0.8000E+01
  -5.850  0.0000E+00  0.8000E+01
  -5.840  0.0000E+00  0.8000E+01
  -5.830  0.0000E+00  0.8000E+01
  -5.820  0.0000E+00  0.8000E+01
  -5.810  0.0000E+00  0.8000E+01
  -5.800  0.0000E+00  0.8000E+01
  -5.790  0.0000E+00  0.8000E+01
  -5.780  0.0000E+00  0.8000E+01
  -5.770  0.0000E+00  0.8000E+01
  -5.760  0.0000E+00  0.8000E+01
  -5.750  0.0000E+00  0.8000E+01
  -5.740  0.0000E+00  0.8000E+01
  -5.730  0.0000E+00  0.8000E+01
  -5.720  0.0000E+00  0.8000E+01
  -5.710  0.0000E+00  0.8000E+01
  -5.700  0.0000E+00  0.8000E+01
  -5.690  0.0000E+00  0.8000E+01
  -5.680  0.0000E+00  0.8000E+01
  -5.670  0.0000E+00  0.8000E+01
  -5.660  0.0000E+00  0.8000E+01
  -5.650  0.0000E+00  0.8000E+01
  -5.640  0.0000E+00  0.8000E+01
  -5.630  0.0000E+00  0.8000E+01
  -5.620  0.0000E+00  0.8000E+01
  -5.610  0.0000E+00  0.8000E+01
  -5.600  0.0000E+00  0.8000E+01
  -5.590  0.0000E+00  0.8000E+01
  -5.580  0.0000E+00  0.8000E+01
  -5.570  0.0000E+00  0.8000E+01
  -5.560  0.0000E+00  0.8000E+01
  -5.550  0.0000E+00  0.8000E+01
  -5.540  0.0000E+00  0.8000E+01
  -5.530  0.0000E+00  0.8000E+01
  -5.520  0.0000E+00  0.8000E+01
  -5.510  0.0000E+00  0.8000E+01
  -5.500  0.0000E+00  0.8000E+01
  -5.490  0.0000E+00  0.8000E+01
  -5.480  0.0000E+00  0.8000E+01
  -5.470  0.0000E+00  0.8000E+01
  -5.460  0.0000E+00  0.8000E+01
  -5.450  0.0000E+00  0.8000E+01
  -5.440  0.0000E+00  0.8000E+01
  -5.430  0.0000E+00  0.8000E+01
  -5.420  0.0000E+00  0.8000E+01
  -5.410  0.0000E+00  0.8000E+01
  -5.400  0.0000E+00  0.8000E+01
  -5.390  0.0000E+00  0.8000E+01
  -5.380  0.0000E+00  0.8000E+01
  -5.370  0.0000E+00  0.8000E+01
  -5.360  0.0000E+00  0.8000E+01
  -5.350  0.0000E+00  0.8000E+01
  -5.340  0.0000E+00  0.8000E+01
  -5.330  0.0000E+00  0.8000E+01
  -5.320  0.0000E+00  0.8000E+01
  -5.310  0.0000E+00  0.8000E+01
  -5.300  0.0000E+00  0.8000E+01
  -5.290  0.0000E+00  0.8000E+01
  -5.280  0.0000E+00  0.8000E+01
  -5.270  0.0000E+00  0.8000E+01
  -5.260  0.0000E+00  0.8000E+01
  -5.250  0.0000E+00  0.8000E+01
  -5.240  0.0000E+00  0.8000E+01
  -5.230  0.0000E+00  0.8000E+01
  -5.220  0.0000E+00  0.8000E+01
  -5.210  0.0000E+00  0.8000E+01
  -5.200  0.0000E+00  0.8000E+01
  -5.190  0.0000E+00  0.8000E+01
  -5.180  0.0000E+00  0.8000E+01
  -5.170  0.0000E+00  0.8000E+01
  -5.160  0.0000E+00  0.8000E+01
  -5.150  0.0000E+00  0.8000E+01
  -5.140  0.0000E+00  0.8000E+01
  -5.130  0.0000E+00  0.8000E+01
  -5.120  0.0000E+00  0.8000E+01
  -5.110  0.0000E+00  0.8000E+01
  -5.100  0.0000E+00  0.8000E+01
  -5.090  0.0000E+00  0.8000E+01
  -5.080  0.0000E+00  0.8000E+01
  -5.070  0.0000E+00  0.8000E+01
  -5.060  0.0000E+00  0.8000E+01
  -5.050  0.0000E+00  0.8000E+01
  -5.040  0.0000E+00  0.8000E+01
  -5.030  0.0000E+00  0.8000E+01
  -5.020  0.0000E+00  0.8000E+01
  -5.010  0.0000E+00  0.8000E+01
  -5.000  0.0000E+00  0.8000E+01
  -4.990  0.0000E+00  0.8000E+01
  -4.980  0.0000E+00  0.8000E+01
  -4.970  0.0000E+00  0.8000E+01
  -4.960  0.0000E+00  0.8000E+01
  -4.950  0.0000E+00  0.8000E+01
  -4.940  0.0000E+00  0.8000E+01
  -4.930  0.0000E+00  0.8000E+01
  -4.920  0.0000E+00  0.8000E+01
  -4.910  0.0000E+00  0.8000E+01
  -4.900  0.0000E+00  0.8000E+01
  -4.890  0.0000E+00  0.8000E+01
  -4.880  0.0000E+00  0.8000E+01
  -4.870  0.0000E+00  0.8000E+01
  -4.860  0.0000E+00  0.8000E+01
  -4.850  0.0000E+00  0.8000E+01
  -4.840  0.0000E+00  0.8000E+01
  -4.830  0.0000E+00  0.8000E+01
  -4.820  0.0000E+00  0.8000E+01
  -4.810  0.0000E+00  0.8000E+01
  -4.800  0.0000E+00  0.8000E+01
  -4.790  0.0000E+00  0.8000E+01
  -4.780  0.0000E+00  0.8000E+01
  -4.770  0.0000E+00  0.8000E+01
  -4.760  0.0000E+00  0.8000E+01
  -4.750  0.0000E+00  0.8000E+01
  -4.740  0.0000E+00  0.8000E+01
  -4.730  0.0000E+00  0.8000E+01
  -4.720  0.0000E+00  0.8000E+01
  -4.710  0.0000E+00  0.8000E+01
  -4.700  0.0000E+00  0.8000E+01
  -4.690  0.0000E+00  0.8000E+01
  -4.680  0.0000E+00  0.8000E+01
  -4.670  0.0000E+00  0.8000E+01
  -4.660  0.0000E+00  0.8000E+01
  -4.650  0.0000E+00  0.8000E+01
  -4.640  0.0000E+00  0.8000E+01
  -4.630  0.0000E+00  0.8000E+01
  -4.620  0.0000E+00  0.8000E+01
  -4.610  0.0000E+00  0.8000E+01
  -4.600  0.0000E+00  0.8000E+01
  -4.590  0.0000E+00  0.8000E+01
  -4.580  0.0000E+00  0.8000E+01
  -4.570  0.0000E+00  0.8000E+01
  -4.560  0.0000E+00  0.8000E+01
  -4.550  0.0000E+00  0.8000E+01
  -4.540  0.0000E+00  0.8000E+01
  -4.530  0.0000E+00  0.8000E+01
  -4.520  0.0000E+00  0.8000E+01
  -4.510  0.0000E+00  0.8000E+01
  -4.500  0.0000E+00  0.8000E+01
  -4.490  0.0000E+00  0.8000E+01
  -4.480  0.0000E+00  0.8000E+01
  -4.470  0.0000E+00  0.8000E+01
  -4.460  0.0000E+00  0.8000E+01
  -4.450  0.0000E+00  0.8000E+01
  -4.440  0.0000E+00  0.8000E+01
  -4.430  0.0000E+00  0.8000E+01
  -4.420  0.0000E+00  0.8000E+01
  -4.410  0.0000E+00  0.8000E+01
  -4.400  0.0000E+00  0.8000E+01
  -4.390  0.0000E+00  0.8000E+01
  -4.380  0.0000E+00  0.8000E+01
  -4.370  0.0000E+00  0.8000E+01
  -4.360  0.0000E+00  0.8000E+01
  -4.350  0.0000E+00  0.8000E+01
  -4.340  0.0000E+00  0.8000E+01
  -4.330  0.0000E+00  0.8000E+01
  -4.320  0.0000E+00  0.8000E+01
  -4.310  0.0000E+00  0.8000E+01
  -4.300  0.0000E+00  0.8000E+01
  -4.290  0.0000E+00  0.8000E+01
  -4.280  0.0000E+00  0.8000E+01
  -4.270  0.0000E+00  0.8000E+01
  -4.260  0.0000E+00  0.8000E+01
  -4.250  0.0000E+00  0.8000E+01
  -4.240  0.0000E+00  0.8000E+01
  -4.230  0.0000E+00  0.8000E+01
  -4.220  0.0000E+00  0.8000E+01
  -4.210  0.0000E+00  0.8000E+01
  -4.200  0.0000E+00  0.8000E+01
  -4.190  0.0000E+00  0.8000E+01
  -4.180  0.0000E+00  0.8000E+01
  -4.170  0.0000E+00  0.8000E+01
  -4.160  0.0000E+00  0.8000E+01
  -4.150  0.0000E+00  0.8000E+01
  -4.140  0.0000E+00  0.8000E+01
  -4.130  0.0000E+00  0.8000E+01
  -4.120  0.0000E+00  0.8000E+01
  -4.110  0.0000E+00  0.8000E+01
  -4.100  0.0000E+00  0.8000E+01
  -4.090  0.0000E+00  0.8000E+01
  -4.080  0.0000E+00  0.8000E+01
  -4.070  0.0000E+00  0.8000E+01
  -4.060  0.0000E+00  0.8000E+01
  -4.050  0.0000E+00  0.8000E+01
  -4.040  0.0000E+00  0.8000E+01
  -4.030  0.0000E+00  0.8000E+01
  -4.020  0.0000E+00  0.8000E+01
  -4.010  0.0000E+00  0.8000E+01
  -4.000  0.0000E+00  0.8000E+01
  -3.990  0.0000E+00  0.8000E+01
  -3.980  0.0000E+00  0.8000E+01
  -3.970  0.0000E+00  0.8000E+01
  -3.960  0.0000E+00  0.8000E+01
  -3.950  0.0000E+00  0.8000E+01
  -3.940  0.0000E+00  0.8000E+01
  -3.930  0.0000E+00  0.8000E+01
  -3.920  0.0000E+00  0.8000E+01
  -3.910  0.0000E+00  0.8000E+01
  -3.900  0.0000E+00  0.8000E+01
  -3.890  0.0000E+00  0.8000E+01
  -3.880  0.0000E+00  0.8000E+01
  -3.870  0.0000E+00  0.8000E+01
  -3.860  0.0000E+00  0.8000E+01
  -3.850  0.0000E+00  0.8000E+01
  -3.840  0.0000E+00  0.8000E+01
  -3.830  0.0000E+00  0.8000E+01
  -3.820  0.0000E+00  0.8000E+01
  -3.810  0.0000E+00  0.8000E+01
  -3.800  0.0000E+00  0.8000E+01
  -3.790  0.0000E+00  0.8000E+01
  -3.780  0.0000E+00  0.8000E+01
  -3.770  0.0000E+00  0.8000E+01
  -3.760  0.0000E+00  0.8000E+01
  -3.750  0.0000E+00  0.8000E+01
  -3.740  0.0000E+00  0.8000E+01
  -3.730  0.0000E+00  0.8000E+01
  -3.720  0.0000E+00  0.8000E+01
  -3.710  0.0000E+00  0.8000E+01
  -3.700  0.0000E+00  0.8000E+01
  -3.690  0.0000E+00  0.8000E+01
  -3.680  0.0000E+00  0.8000E+01
  -3.670  0.0000E+00  0.8000E+01
  -3.660  0.0000E+00  0.8000E+01
  -3.650  0.0000E+00  0.8000E+01
  -3.640  0.0000E+00  0.8000E+01
  -3.630  0.0000E+00  0.8000E+01
  -3.620  0.0000E+00  0.8000E+01
  -3.610  0.0000E+00  0.8000E+01
  -3.600  0.0000E+00  0.8000E+01
  -3.590  0.0000E+00  0.8000E+01
  -3.580  0.0000E+00  0.8000E+01
  -3.570  0.0000E+00  0.8000E+01
  -3.560  0.0000E+00  0.8000E+01
  -3.550  0.0000E+00  0.8000E+01
  -3.540  0.0000E+00  0.8000E+01
  -3.530  0.0000E+00  0.8000E+01
  -3.520  0.0000E+00  0.8000E+01
  -3.510  0.0000E+00  0.8000E+01
  -3.500  0.0000E+00  0.8000E+01
  -3.490  0.0000E+00  0.8000E+01
  -3.480  0.0000E+00  0.8000E+01
  -3.470  0.0000E+00  0.8000E+01
  -3.460  0.0000E+00  0.8000E+01
  -3.450  0.0000E+00  0.8000E+01
  -3.440  0.0000E+00  0.8000E+01
  -3.430  0.0000E+00  0.8000E+01
  -3.420  0.0000E+00  0.8000E+01
  -3.410  0.0000E+00  0.8000E+01
  -3.400  0.0000E+00  0.8000E+01
  -3.390  0.0000E+00  0.8000E+01
  -3.380  0.0000E+00  0.8000E+01
  -3.370  0.0000E+00  0.8000E+01
  -3.360  0.0000E+00  0.8000E+01
  -3.350  0.0000E+00  0.8000E+01
  -3.340  0.0000E+00  0.8000E+01
  -3.330  0.0000E+00  0.8000E+01
  -3.320  0.0000E+00  0.8000E+01
  -3.310  0.0000E+00  0.8000E+01
  -3.300  0.0000E+00  0.8000E+01
  -3.290  0.0000E+00  0.8000E+01
  -3.280  0.0000E+00  0.8000E+01
  -3.270  0.0000E+00  0.8000E+01
  -3.260  0.0000E+00  0.8000E+01
  -3.250  0.0000E+00  0.8000E+01
  -3.240  0.0000E+00  0.8000E+01
  -3.230  0.0000E+00  0.8000E+01
  -3.220  0.0000E+00  0.8000E+01
  -3.210  0.0000E+00  0.8000E+01
  -3.200  0.0000E+00  0.8000E+01
  -3.190  0.0000E+00  0.8000E+01
  -3.180  0.0000E+00  0.8000E+01
  -3.170  0.0000E+00  0.8000E+01
  -3.160  0.0000E+00  0.8000E+01
  -3.150  0.0000E+00  0.8000E+01
  -3.140  0.0000E+00  0.8000E+01
  -3.130  0.0000E+00  0.8000E+01
  -3.120  0.0000E+00  0.8000E+01
  -3.110  0.0000E+00  0.8000E+01
  -3.100  0.0000E+00  0.8000E+01
  -3.090  0.0000E+00  0.8000E+01
  -3.080  0.0000E+00  0.8000E+01
  -3.070  0.0000E+00  0.8000E+01
  -3.060  0.0000E+00  0.8000E+01
  -3.050  0.0000E+00  0.8000E+01
  -3.040  0.0000E+00  0.8000E+01
  -3.030  0.0000E+00  0.8000E+01
  -3.020  0.0000E+00  0.8000E+01
  -3.010  0.0000E+00  0.8000E+01
  -3.000  0.0000E+00  0.8000E+01
  -2.990  0.0000E+00  0.8000E+01
  -2.980  0.0000E+00  0.8000E+01
  -2.970  0.0000E+00  0.8000E+01
  -2.960  0.0000E+00  0.8000E+01
  -2.950  0.0000E+00  0.8000E+01
  -2.940  0.0000E+00  0.8000E+01
  -2.930  0.0000E+00  0.8000E+01
  -2.920  0.0000E+00  0.8000E+01
  -2.910  0.0000E+00  0.8000E+01
  -2.900  0.0000E+00  0.8000E+01
  -2.890  0.0000E+00  0.8000E+01
  -2.880  0.0000E+00  0.8000E+01
  -2.870  0.0000E+00  0.8000E+01
  -2.860  0.0000E+00  0.8000E+01
  -2.850  0.0000E+00  0.8000E+01
  -2.840  0.0000E+00  0.8000E+01
  -2.830  0.0000E+00  0.8000E+01
  -2.820  0.0000E+00  0.8000E+01
  -2.810  0.0000E+00  0.8000E+01
  -2.800  0.0000E+00  0.8000E+01
  -2.790  0.0000E+00  0.8000E+01
  -2.780  0.0000E+00  0.8000E+01
  -2.770  0.0000E+00  0.8000E+01
  -2.760  0.0000E+00  0.8000E+01
  -2.750  0.0000E+00  0.8000E+01
  -2.740  0.0000E+00  0.8000E+01
  -2.730  0.0000E+00  0.8000E+01
  -2.720  0.0000E+00  0.8000E+01
  -2.710  0.0000E+00  0.8000E+01
  -2.700  0.0000E+00  0.8000E+01
  -2.690  0.0000E+00  0.8000E+01
  -2.680  0.0000E+00  0.8000E+01
  -2.670  0.0000E+00  0.8000E+01
  -2.660  0.0000E+00  0.8000E+01
  -2.650  0.0000E+00  0.8000E+01
  -2.640  0.0000E+00  0.8000E+01
  -2.630  0.0000E+00  0.8000E+01
  -2.620  0.0000E+00  0.8000E+01
  -2.610  0.0000E+00  0.8000E+01
  -2.600  0.0000E+00  0.8000E+01
  -2.590  0.0000E+00  0.8000E+01
  -2.580  0.0000E+00  0.8000E+01
  -2.570  0.0000E+00  0.8000E+01
  -2.560  0.0000E+00  0.8000E+01
  -2.550  0.1306E+00  0.8000E+01
  -2.540  0.3687E+00  0.8003E+01
  -2.530  0.4646E+00  0.8007E+01
  -2.520  0.4562E+00  0.8012E+01
  -2.510  0.4859E+00  0.8017E+01
  -2.500  0.6470E+00  0.8022E+01
  -2.490  0.8508E+00  0.8030E+01
  -2.480  0.9427E+00  0.8039E+01
  -2.470  0.1107E+01  0.8049E+01
  -2.460  0.2079E+01  0.8066E+01
  -2.450  0.2556E+01  0.8090E+01
  -2.440  0.2555E+01  0.8115E+01
  -2.430  0.2570E+01  0.8142E+01
  -2.420  0.2448E+01  0.8168E+01
  -2.410  0.2539E+01  0.8193E+01
  -2.400  0.2702E+01  0.8219E+01
  -2.390  0.2672E+01  0.8246E+01
  -2.380  0.2546E+01  0.8272E+01
  -2.370  0.2623E+01  0.8298E+01
  -2.360  0.2627E+01  0.8324E+01
  -2.350  0.2644E+01  0.8350E+01
  -2.340  0.2709E+01  0.8377E+01
  -2.330  0.2710E+01  0.8404E+01
  -2.320  0.2693E+01  0.8431E+01
  -2.310  0.2631E+01  0.8458E+01
  -2.300  0.2639E+01  0.8484E+01
  -2.290  0.2686E+01  0.8510E+01
  -2.280  0.2732E+01  0.8538E+01
  -2.270  0.2743E+01  0.8565E+01
  -2.260  0.2757E+01  0.8593E+01
  -2.250  0.2736E+01  0.8620E+01
  -2.240  0.2712E+01  0.8647E+01
  -2.230  0.2721E+01  0.8675E+01
  -2.220  0.2773E+01  0.8702E+01
  -2.210  0.2801E+01  0.8730E+01
  -2.200  0.2777E+01  0.8758E+01
  -2.190  0.2794E+01  0.8786E+01
  -2.180  0.2854E+01  0.8814E+01
  -2.170  0.2886E+01  0.8843E+01
  -2.160  0.3741E+01  0.8874E+01
  -2.150  0.4322E+01  0.8914E+01
  -2.140  0.4354E+01  0.8958E+01
  -2.130  0.4612E+01  0.9002E+01
  -2.120  0.4562E+01  0.9047E+01
  -2.110  0.4373E+01  0.9091E+01
  -2.100  0.4525E+01  0.9136E+01
  -2.090  0.4662E+01  0.9182E+01
  -2.080  0.4652E+01  0.9228E+01
  -2.070  0.4580E+01  0.9274E+01
  -2.060  0.4564E+01  0.9320E+01
  -2.050  0.4566E+01  0.9365E+01
  -2.040  0.4632E+01  0.9411E+01
  -2.030  0.4697E+01  0.9458E+01
  -2.020  0.4737E+01  0.9505E+01
  -2.010  0.4718E+01  0.9553E+01
  -2.000  0.4718E+01  0.9600E+01
  -1.990  0.4780E+01  0.9647E+01
  -1.980  0.4822E+01  0.9695E+01
  -1.970  0.4833E+01  0.9744E+01
  -1.960  0.4899E+01  0.9792E+01
  -1.950  0.4932E+01  0.9842E+01
  -1.940  0.4918E+01  0.9891E+01
  -1.930  0.4928E+01  0.9940E+01
  -1.920  0.5006E+01  0.9990E+01
  -1.910  0.5076E+01  0.1004E+02
  -1.900  0.5090E+01  0.1009E+02
  -1.890  0.5128E+01  0.1014E+02
  -1.880  0.5198E+01  0.1019E+02
  -1.870  0.5290E+01  0.1025E+02
  -1.860  0.5339E+01  0.1030E+02
  -1.850  0.5356E+01  0.1035E+02
  -1.840  0.5401E+01  0.1041E+02
  -1.830  0.5475E+01  0.1046E+02
  -1.820  0.5544E+01  0.1052E+02
  -1.810  0.5615E+01  0.1057E+02
  -1.800  0.5708E+01  0.1063E+02
  -1.790  0.5885E+01  0.1069E+02
  -1.780  0.6052E+01  0.1075E+02
  -1.770  0.6146E+01  0.1081E+02
  -1.760  0.6283E+01  0.1087E+02
  -1.750  0.6478E+01  0.1093E+02
  -1.740  0.6844E+01  0.1100E+02
  -1.730  0.7466E+01  0.1107E+02
  -1.720  0.7471E+01  0.1115E+02
  -1.710  0.7141E+01  0.1122E+02
  -1.700  0.6757E+01  0.1129E+02
  -1.690  0.6539E+01  0.1136E+02
  -1.680  0.6347E+01  0.1142E+02
  -1.670  0.6316E+01  0.1149E+02
  -1.660  0.6203E+01  0.1155E+02
  -1.650  0.6129E+01  0.1161E+02
  -1.640  0.6089E+01  0.1167E+02
  -1.630  0.6017E+01  0.1173E+02
  -1.620  0.6163E+01  0.1179E+02
  -1.610  0.6079E+01  0.1186E+02
  -1.600  0.6044E+01  0.1192E+02
  -1.590  0.5855E+01  0.1198E+02
  -1.580  0.5699E+01  0.1203E+02
  -1.570  0.5791E+01  0.1209E+02
  -1.560  0.5908E+01  0.1215E+02
  -1.550  0.6022E+01  0.1221E+02
  -1.540  0.6156E+01  0.1227E+02
  -1.530  0.6320E+01  0.1233E+02
  -1.520  0.6578E+01  0.1240E+02
  -1.510  0.6891E+01  0.1246E+02
  -1.500  0.7424E+01  0.1254E+02
  -1.490  0.7999E+01  0.1261E+02
  -1.480  0.8101E+01  0.1269E+02
  -1.470  0.8801E+01  0.1278E+02
  -1.460  0.7891E+01  0.1286E+02
  -1.450  0.8179E+01  0.1294E+02
  -1.440  0.7435E+01  0.1302E+02
  -1.430  0.7214E+01  0.1309E+02
  -1.420  0.7413E+01  0.1316E+02
  -1.410  0.7473E+01  0.1324E+02
  -1.400  0.7155E+01  0.1331E+02
  -1.390  0.6710E+01  0.1338E+02
  -1.380  0.6139E+01  0.1345E+02
  -1.370  0.5651E+01  0.1351E+02
  -1.360  0.5466E+01  0.1356E+02
  -1.350  0.4065E+01  0.1361E+02
  -1.340  0.3266E+01  0.1365E+02
  -1.330  0.2229E+01  0.1367E+02
  -1.320  0.2177E+01  0.1369E+02
  -1.310  0.2120E+01  0.1372E+02
  -1.300  0.1944E+01  0.1374E+02
  -1.290  0.1858E+01  0.1375E+02
  -1.280  0.1615E+01  0.1377E+02
  -1.270  0.1395E+01  0.1379E+02
  -1.260  0.1370E+01  0.1380E+02
  -1.250  0.1342E+01  0.1381E+02
  -1.240  0.1311E+01  0.1383E+02
  -1.230  0.1287E+01  0.1384E+02
  -1.220  0.1274E+01  0.1385E+02
  -1.210  0.1262E+01  0.1387E+02
  -1.200  0.1249E+01  0.1388E+02
  -1.190  0.1238E+01  0.1389E+02
  -1.180  0.1220E+01  0.1390E+02
  -1.170  0.1197E+01  0.1392E+02
  -1.160  0.1178E+01  0.1393E+02
  -1.150  0.1166E+01  0.1394E+02
  -1.140  0.1155E+01  0.1395E+02
  -1.130  0.1144E+01  0.1396E+02
  -1.120  0.1133E+01  0.1397E+02
  -1.110  0.1123E+01  0.1398E+02
  -1.100  0.1112E+01  0.1400E+02
  -1.090  0.1100E+01  0.1401E+02
  -1.080  0.1087E+01  0.1402E+02
  -1.070  0.1076E+01  0.1403E+02
  -1.060  0.1067E+01  0.1404E+02
  -1.050  0.1058E+01  0.1405E+02
  -1.040  0.1049E+01  0.1406E+02
  -1.030  0.1040E+01  0.1407E+02
  -1.020  0.1031E+01  0.1408E+02
  -1.010  0.1022E+01  0.1409E+02
  -1.000  0.1011E+01  0.1410E+02
  -0.990  0.9992E+00  0.1411E+02
  -0.980  0.9910E+00  0.1412E+02
  -0.970  0.9867E+00  0.1413E+02
  -0.960  0.9841E+00  0.1414E+02
  -0.950  0.9781E+00  0.1415E+02
  -0.940  0.9705E+00  0.1416E+02
  -0.930  0.9630E+00  0.1417E+02
  -0.920  0.9554E+00  0.1418E+02
  -0.910  0.9475E+00  0.1419E+02
  -0.900  0.9395E+00  0.1420E+02
  -0.890  0.9295E+00  0.1421E+02
  -0.880  0.9205E+00  0.1422E+02
  -0.870  0.9154E+00  0.1423E+02
  -0.860  0.9109E+00  0.1424E+02
  -0.850  0.9063E+00  0.1425E+02
  -0.840  0.9021E+00  0.1425E+02
  -0.830  0.8993E+00  0.1426E+02
  -0.820  0.8968E+00  0.1427E+02
  -0.810  0.8917E+00  0.1428E+02
  -0.800  0.8851E+00  0.1429E+02
  -0.790  0.8785E+00  0.1430E+02
  -0.780  0.8708E+00  0.1431E+02
  -0.770  0.8628E+00  0.1432E+02
  -0.760  0.8576E+00  0.1432E+02
  -0.750  0.8534E+00  0.1433E+02
  -0.740  0.8493E+00  0.1434E+02
  -0.730  0.9596E+00  0.1435E+02
  -0.720  0.1075E+01  0.1436E+02
  -0.710  0.1083E+01  0.1437E+02
  -0.700  0.1090E+01  0.1438E+02
  -0.690  0.1099E+01  0.1439E+02
  -0.680  0.1123E+01  0.1440E+02
  -0.670  0.1160E+01  0.1442E+02
  -0.660  0.1190E+01  0.1443E+02
  -0.650  0.1119E+01  0.1444E+02
  -0.640  0.1082E+01  0.1445E+02
  -0.630  0.1091E+01  0.1446E+02
  -0.620  0.1100E+01  0.1447E+02
  -0.610  0.1109E+01  0.1448E+02
  -0.600  0.1117E+01  0.1449E+02
  -0.590  0.1126E+01  0.1450E+02
  -0.580  0.1135E+01  0.1452E+02
  -0.570  0.1169E+01  0.1453E+02
  -0.560  0.1237E+01  0.1454E+02
  -0.550  0.1285E+01  0.1455E+02
  -0.540  0.1334E+01  0.1457E+02
  -0.530  0.1489E+01  0.1458E+02
  -0.520  0.1663E+01  0.1460E+02
  -0.510  0.1867E+01  0.1461E+02
  -0.500  0.1934E+01  0.1463E+02
  -0.490  0.1953E+01  0.1465E+02
  -0.480  0.1986E+01  0.1467E+02
  -0.470  0.2030E+01  0.1469E+02
  -0.460  0.2061E+01  0.1471E+02
  -0.450  0.2000E+01  0.1473E+02
  -0.440  0.1992E+01  0.1475E+02
  -0.430  0.2007E+01  0.1477E+02
  -0.420  0.1990E+01  0.1479E+02
  -0.410  0.2013E+01  0.1481E+02
  -0.400  0.2030E+01  0.1483E+02
  -0.390  0.2232E+01  0.1485E+02
  -0.380  0.2351E+01  0.1488E+02
  -0.370  0.2405E+01  0.1490E+02
  -0.360  0.2482E+01  0.1492E+02
  -0.350  0.2540E+01  0.1495E+02
  -0.340  0.2619E+01  0.1498E+02
  -0.330  0.2654E+01  0.1500E+02
  -0.320  0.2662E+01  0.1503E+02
  -0.310  0.2702E+01  0.1506E+02
  -0.300  0.2705E+01  0.1508E+02
  -0.290  0.2726E+01  0.1511E+02
  -0.280  0.2741E+01  0.1514E+02
  -0.270  0.2762E+01  0.1516E+02
  -0.260  0.2768E+01  0.1519E+02
  -0.250  0.2786E+01  0.1522E+02
  -0.240  0.2808E+01  0.1525E+02
  -0.230  0.2818E+01  0.1528E+02
  -0.220  0.2819E+01  0.1530E+02
  -0.210  0.2974E+01  0.1533E+02
  -0.200  0.3300E+01  0.1536E+02
  -0.190  0.3883E+01  0.1540E+02
  -0.180  0.4090E+01  0.1544E+02
  -0.170  0.4116E+01  0.1548E+02
  -0.160  0.4044E+01  0.1552E+02
  -0.150  0.4537E+01  0.1556E+02
  -0.140  0.5045E+01  0.1561E+02
  -0.130  0.5439E+01  0.1567E+02
  -0.120  0.5490E+01  0.1572E+02
  -0.110  0.5531E+01  0.1577E+02
  -0.100  0.5648E+01  0.1583E+02
  -0.090  0.5762E+01  0.1589E+02
  -0.080  0.5821E+01  0.1595E+02
  -0.070  0.5834E+01  0.1600E+02
  -0.060  0.5846E+01  0.1606E+02
  -0.050  0.6007E+01  0.1612E+02
  -0.040  0.6132E+01  0.1618E+02
  -0.030  0.6201E+01  0.1624E+02
  -0.020  0.6360E+01  0.1631E+02
  -0.010  0.6493E+01  0.1637E+02
   0.000  0.6708E+01  0.1644E+02
   0.010  0.7059E+01  0.1651E+02
   0.020  0.7413E+01  0.1658E+02
   0.030  0.7659E+01  0.1665E+02
   0.040  0.8050E+01  0.1673E+02
   0.050  0.8303E+01  0.1681E+02
   0.060  0.8210E+01  0.1690E+02
   0.070  0.7797E+01  0.1698E+02
   0.080  0.7333E+01  0.1705E+02
   0.090  0.6798E+01  0.1712E+02
   0.100  0.6637E+01  0.1719E+02
   0.110  0.6424E+01  0.1726E+02
   0.120  0.6759E+01  0.1732E+02
   0.130  0.6785E+01  0.1739E+02
   0.140  0.6775E+01  0.1746E+02
   0.150  0.6491E+01  0.1752E+02
   0.160  0.6188E+01  0.1759E+02
   0.170  0.5624E+01  0.1765E+02
   0.180  0.4844E+01  0.1770E+02
   0.190  0.4437E+01  0.1775E+02
   0.200  0.4123E+01  0.1779E+02
   0.210  0.3853E+01  0.1783E+02
   0.220  0.3827E+01  0.1787E+02
   0.230  0.3803E+01  0.1790E+02
   0.240  0.3783E+01  0.1794E+02
   0.250  0.3772E+01  0.1798E+02
   0.260  0.3796E+01  0.1802E+02
   0.270  0.3827E+01  0.1806E+02
   0.280  0.3845E+01  0.1809E+02
   0.290  0.3862E+01  0.1813E+02
   0.300  0.3886E+01  0.1817E+02
   0.310  0.3911E+01  0.1821E+02
   0.320  0.3937E+01  0.1825E+02
   0.330  0.4027E+01  0.1829E+02
   0.340  0.4144E+01  0.1833E+02
   0.350  0.4249E+01  0.1837E+02
   0.360  0.4366E+01  0.1842E+02
   0.370  0.4521E+01  0.1846E+02
   0.380  0.4608E+01  0.1851E+02
   0.390  0.4589E+01  0.1855E+02
   0.400  0.4364E+01  0.1860E+02
   0.410  0.4165E+01  0.1864E+02
   0.420  0.3983E+01  0.1868E+02
   0.430  0.3892E+01  0.1872E+02
   0.440  0.3660E+01  0.1876E+02
   0.450  0.3427E+01  0.1879E+02
   0.460  0.3341E+01  0.1883E+02
   0.470  0.3301E+01  0.1886E+02
   0.480  0.3276E+01  0.1889E+02
   0.490  0.3230E+01  0.1893E+02
   0.500  0.3209E+01  0.1896E+02
   0.510  0.3251E+01  0.1899E+02
   0.520  0.3359E+01  0.1902E+02
   0.530  0.3287E+01  0.1906E+02
   0.540  0.3288E+01  0.1909E+02
   0.550  0.3314E+01  0.1912E+02
   0.560  0.3355E+01  0.1916E+02
   0.570  0.3450E+01  0.1919E+02
   0.580  0.3645E+01  0.1923E+02
   0.590  0.4033E+01  0.1926E+02
   0.600  0.3949E+01  0.1930E+02
   0.610  0.4270E+01  0.1934E+02
   0.620  0.4630E+01  0.1939E+02
   0.630  0.5245E+01  0.1944E+02
   0.640  0.5526E+01  0.1949E+02
   0.650  0.5650E+01  0.1955E+02
   0.660  0.5485E+01  0.1960E+02
   0.670  0.5613E+01  0.1966E+02
   0.680  0.5823E+01  0.1972E+02
   0.690  0.5764E+01  0.1977E+02
   0.700  0.5413E+01  0.1983E+02
   0.710  0.5326E+01  0.1988E+02
   0.720  0.5288E+01  0.1994E+02
   0.730  0.5508E+01  0.1999E+02
   0.740  0.5376E+01  0.2004E+02
   0.750  0.4946E+01  0.2010E+02
   0.760  0.4872E+01  0.2015E+02
   0.770  0.4873E+01  0.2019E+02
   0.780  0.5039E+01  0.2024E+02
   0.790  0.5191E+01  0.2029E+02
   0.800  0.5248E+01  0.2035E+02
   0.810  0.5397E+01  0.2040E+02
   0.820  0.5678E+01  0.2046E+02
   0.830  0.5738E+01  0.2051E+02
   0.840  0.5704E+01  0.2057E+02
   0.850  0.5653E+01  0.2063E+02
   0.860  0.5512E+01  0.2068E+02
   0.870  0.5367E+01  0.2074E+02
   0.880  0.5296E+01  0.2079E+02
   0.890  0.5252E+01  0.2084E+02
   0.900  0.5218E+01  0.2090E+02
   0.910  0.5204E+01  0.2095E+02
   0.920  0.5224E+01  0.2100E+02
   0.930  0.5240E+01  0.2105E+02
   0.940  0.5272E+01  0.2110E+02
   0.950  0.5323E+01  0.2116E+02
   0.960  0.5391E+01  0.2121E+02
   0.970  0.5472E+01  0.2127E+02
   0.980  0.5592E+01  0.2132E+02
   0.990  0.5591E+01  0.2138E+02
   1.000  0.5588E+01  0.2143E+02
   1.010  0.5664E+01  0.2149E+02
   1.020  0.5744E+01  0.2155E+02
   1.030  0.5845E+01  0.2160E+02
   1.040  0.6011E+01  0.2166E+02
   1.050  0.6170E+01  0.2172E+02
   1.060  0.6304E+01  0.2179E+02
   1.070  0.6400E+01  0.2185E+02
   1.080  0.6340E+01  0.2191E+02
   1.090  0.6242E+01  0.2198E+02
   1.100  0.6217E+01  0.2204E+02
   1.110  0.6330E+01  0.2210E+02
   1.120  0.6439E+01  0.2217E+02
   1.130  0.6551E+01  0.2223E+02
   1.140  0.6628E+01  0.2230E+02
   1.150  0.6463E+01  0.2236E+02
   1.160  0.6299E+01  0.2243E+02
   1.170  0.6012E+01  0.2249E+02
   1.180  0.5807E+01  0.2255E+02
   1.190  0.5662E+01  0.2260E+02
   1.200  0.5575E+01  0.2266E+02
   1.210  0.5540E+01  0.2272E+02
   1.220  0.5534E+01  0.2277E+02
   1.230  0.5536E+01  0.2283E+02
   1.240  0.5518E+01  0.2288E+02
   1.250  0.5513E+01  0.2294E+02
   1.260  0.5479E+01  0.2299E+02
   1.270  0.5418E+01  0.2305E+02
   1.280  0.5314E+01  0.2310E+02
   1.290  0.5114E+01  0.2315E+02
   1.300  0.5251E+01  0.2320E+02
   1.310  0.5340E+01  0.2326E+02
   1.320  0.5410E+01  0.2331E+02
   1.330  0.5585E+01  0.2337E+02
   1.340  0.5627E+01  0.2342E+02
   1.350  0.5523E+01  0.2348E+02
   1.360  0.5394E+01  0.2353E+02
   1.370  0.5343E+01  0.2359E+02
   1.380  0.5344E+01  0.2364E+02
   1.390  0.5387E+01  0.2369E+02
   1.400  0.5521E+01  0.2375E+02
   1.410  0.5624E+01  0.2380E+02
   1.420  0.5749E+01  0.2386E+02
   1.430  0.5978E+01  0.2392E+02
   1.440  0.6260E+01  0.2398E+02
   1.450  0.6387E+01  0.2404E+02
   1.460  0.6374E+01  0.2411E+02
   1.470  0.6433E+01  0.2417E+02
   1.480  0.6645E+01  0.2424E+02
   1.490  0.5973E+01  0.2430E+02
   1.500  0.5185E+01  0.2436E+02
   1.510  0.5177E+01  0.2441E+02
   1.520  0.5294E+01  0.2446E+02
   1.530  0.5389E+01  0.2451E+02
   1.540  0.5541E+01  0.2457E+02
   1.550  0.5805E+01  0.2462E+02
   1.560  0.6109E+01  0.2468E+02
   1.570  0.6631E+01  0.2475E+02
   1.580  0.6573E+01  0.2482E+02
   1.590  0.6236E+01  0.2488E+02
   1.600  0.6126E+01  0.2494E+02
   1.610  0.5861E+01  0.2500E+02
   1.620  0.5617E+01  0.2506E+02
   1.630  0.5783E+01  0.2512E+02
   1.640  0.5641E+01  0.2517E+02
   1.650  0.5546E+01  0.2523E+02
   1.660  0.5495E+01  0.2529E+02
   1.670  0.5496E+01  0.2534E+02
   1.680  0.5554E+01  0.2540E+02
   1.690  0.5850E+01  0.2545E+02
   1.700  0.5987E+01  0.2551E+02
   1.710  0.6393E+01  0.2557E+02
   1.720  0.6325E+01  0.2564E+02
   1.730  0.6159E+01  0.2570E+02
   1.740  0.6071E+01  0.2576E+02
   1.750  0.5843E+01  0.2582E+02
   1.760  0.5671E+01  0.2588E+02
   1.770  0.5472E+01  0.2593E+02
   1.780  0.5258E+01  0.2599E+02
   1.790  0.5087E+01  0.2604E+02
   1.800  0.4875E+01  0.2609E+02
   1.810  0.4437E+01  0.2614E+02
   1.820  0.4387E+01  0.2618E+02
   1.830  0.4390E+01  0.2622E+02
   1.840  0.4311E+01  0.2627E+02
   1.850  0.4295E+01  0.2631E+02
   1.860  0.4288E+01  0.2635E+02
   1.870  0.4257E+01  0.2639E+02
   1.880  0.4242E+01  0.2644E+02
   1.890  0.3800E+01  0.2648E+02
   1.900  0.3604E+01  0.2651E+02
   1.910  0.3419E+01  0.2655E+02
   1.920  0.3223E+01  0.2658E+02
   1.930  0.3230E+01  0.2662E+02
   1.940  0.3243E+01  0.2665E+02
   1.950  0.3257E+01  0.2668E+02
   1.960  0.3272E+01  0.2671E+02
   1.970  0.3287E+01  0.2675E+02
   1.980  0.3305E+01  0.2678E+02
   1.990  0.3325E+01  0.2681E+02
   2.000  0.3354E+01  0.2685E+02
   2.010  0.3383E+01  0.2688E+02
   2.020  0.3408E+01  0.2691E+02
   2.030  0.3431E+01  0.2695E+02
   2.040  0.3451E+01  0.2698E+02
   2.050  0.3472E+01  0.2702E+02
   2.060  0.3497E+01  0.2705E+02
   2.070  0.3537E+01  0.2709E+02
   2.080  0.3574E+01  0.2712E+02
   2.090  0.3608E+01  0.2716E+02
   2.100  0.3639E+01  0.2719E+02
   2.110  0.3675E+01  0.2723E+02
   2.120  0.3717E+01  0.2727E+02
   2.130  0.3758E+01  0.2730E+02
   2.140  0.3812E+01  0.2734E+02
   2.150  0.3866E+01  0.2738E+02
   2.160  0.3912E+01  0.2742E+02
   2.170  0.3957E+01  0.2746E+02
   2.180  0.4005E+01  0.2750E+02
   2.190  0.4074E+01  0.2754E+02
   2.200  0.4182E+01  0.2758E+02
   2.210  0.4272E+01  0.2762E+02
   2.220  0.4360E+01  0.2767E+02
   2.230  0.4454E+01  0.2771E+02
   2.240  0.4545E+01  0.2775E+02
   2.250  0.4645E+01  0.2780E+02
   2.260  0.4911E+01  0.2785E+02
   2.270  0.5183E+01  0.2790E+02
   2.280  0.5487E+01  0.2795E+02
   2.290  0.5669E+01  0.2801E+02
   2.300  0.5706E+01  0.2806E+02
   2.310  0.5535E+01  0.2812E+02
   2.320  0.5409E+01  0.2818E+02
   2.330  0.5489E+01  0.2823E+02
   2.340  0.5796E+01  0.2829E+02
   2.350  0.5916E+01  0.2834E+02
   2.360  0.5825E+01  0.2840E+02
   2.370  0.5804E+01  0.2846E+02
   2.380  0.5561E+01  0.2852E+02
   2.390  0.5194E+01  0.2857E+02
   2.400  0.5128E+01  0.2862E+02
   2.410  0.4920E+01  0.2867E+02
   2.420  0.4804E+01  0.2872E+02
   2.430  0.4978E+01  0.2877E+02
   2.440  0.5007E+01  0.2882E+02
   2.450  0.4934E+01  0.2887E+02
   2.460  0.5577E+01  0.2893E+02
   2.470  0.3649E+01  0.2897E+02
   2.480  0.3803E+01  0.2900E+02
   2.490  0.3829E+01  0.2904E+02
   2.500  0.3468E+01  0.2908E+02
   2.510  0.3414E+01  0.2911E+02
   2.520  0.3413E+01  0.2915E+02
   2.530  0.3398E+01  0.2918E+02
   2.540  0.3455E+01  0.2921E+02
   2.550  0.3391E+01  0.2925E+02
   2.560  0.3285E+01  0.2928E+02
   2.570  0.3272E+01  0.2932E+02
   2.580  0.3481E+01  0.2935E+02
   2.590  0.4022E+01  0.2939E+02
   2.600  0.4094E+01  0.2943E+02
   2.610  0.4312E+01  0.2947E+02
   2.620  0.4737E+01  0.2952E+02
   2.630  0.4813E+01  0.2956E+02
   2.640  0.5587E+01  0.2962E+02
   2.650  0.7042E+01  0.2968E+02
   2.660  0.5093E+01  0.2973E+02
   2.670  0.5038E+01  0.2978E+02
   2.680  0.5049E+01  0.2983E+02
   2.690  0.5100E+01  0.2989E+02
   2.700  0.4959E+01  0.2994E+02
   2.710  0.4922E+01  0.2999E+02
   2.720  0.4881E+01  0.3003E+02
   2.730  0.5095E+01  0.3008E+02
   2.740  0.5380E+01  0.3014E+02
   2.750  0.5290E+01  0.3019E+02
   2.760  0.5558E+01  0.3024E+02
   2.770  0.5803E+01  0.3030E+02
   2.780  0.6011E+01  0.3036E+02
   2.790  0.6616E+01  0.3042E+02
   2.800  0.7378E+01  0.3049E+02
   2.810  0.6945E+01  0.3056E+02
   2.820  0.6608E+01  0.3063E+02
   2.830  0.6358E+01  0.3070E+02
   2.840  0.6308E+01  0.3076E+02
   2.850  0.6267E+01  0.3082E+02
   2.860  0.6056E+01  0.3088E+02
   2.870  0.5930E+01  0.3094E+02
   2.880  0.5684E+01  0.3100E+02
   2.890  0.5658E+01  0.3106E+02
   2.900  0.5661E+01  0.3112E+02
   2.910  0.5649E+01  0.3117E+02
   2.920  0.5689E+01  0.3123E+02
   2.930  0.7155E+01  0.3129E+02
   2.940  0.7414E+01  0.3137E+02
   2.950  0.7649E+01  0.3144E+02
   2.960  0.7988E+01  0.3152E+02
   2.970  0.8427E+01  0.3160E+02
   2.980  0.8949E+01  0.3169E+02
   2.990  0.9259E+01  0.3178E+02
   3.000  0.9288E+01  0.3188E+02
   3.010  0.9144E+01  0.3197E+02
   3.020  0.9137E+01  0.3206E+02
   3.030  0.9228E+01  0.3215E+02
   3.040  0.8994E+01  0.3224E+02
   3.050  0.9108E+01  0.3233E+02
   3.060  0.9546E+01  0.3243E+02
   3.070  0.1069E+02  0.3253E+02
   3.080  0.1270E+02  0.3265E+02
   3.090  0.1181E+02  0.3276E+02
   3.100  0.1121E+02  0.3289E+02
   3.110  0.1128E+02  0.3300E+02
   3.120  0.1157E+02  0.3311E+02
   3.130  0.1172E+02  0.3323E+02
   3.140  0.1180E+02  0.3335E+02
   3.150  0.1153E+02  0.3347E+02
   3.160  0.1088E+02  0.3358E+02
   3.170  0.1065E+02  0.3369E+02
   3.180  0.1020E+02  0.3379E+02
   3.190  0.1002E+02  0.3389E+02
   3.200  0.1006E+02  0.3399E+02
   3.210  0.1003E+02  0.3409E+02
   3.220  0.1018E+02  0.3419E+02
   3.230  0.1055E+02  0.3430E+02
   3.240  0.1017E+02  0.3440E+02
   3.250  0.9699E+01  0.3450E+02
   3.260  0.8783E+01  0.3459E+02
   3.270  0.7796E+01  0.3467E+02
   3.280  0.7297E+01  0.3475E+02
   3.290  0.6723E+01  0.3482E+02
   3.300  0.6447E+01  0.3489E+02
   3.310  0.6219E+01  0.3495E+02
   3.320  0.5956E+01  0.3501E+02
   3.330  0.4858E+01  0.3507E+02
   3.340  0.3813E+01  0.3511E+02
   3.350  0.3096E+01  0.3514E+02
   3.360  0.2435E+01  0.3517E+02
   3.370  0.2072E+01  0.3519E+02
   3.380  0.2059E+01  0.3521E+02
   3.390  0.2047E+01  0.3523E+02
   3.400  0.2019E+01  0.3525E+02
   3.410  0.2035E+01  0.3527E+02
   3.420  0.2042E+01  0.3529E+02
   3.430  0.2044E+01  0.3531E+02
   3.440  0.2022E+01  0.3533E+02
   3.450  0.2022E+01  0.3535E+02
   3.460  0.2022E+01  0.3537E+02
   3.470  0.2000E+01  0.3539E+02
   3.480  0.1967E+01  0.3541E+02
   3.490  0.1939E+01  0.3543E+02
   3.500  0.1970E+01  0.3545E+02
   3.510  0.1949E+01  0.3547E+02
   3.520  0.1910E+01  0.3549E+02
   3.530  0.1902E+01  0.3551E+02
   3.540  0.1938E+01  0.3553E+02
   3.550  0.1927E+01  0.3555E+02
   3.560  0.1891E+01  0.3557E+02
   3.570  0.1912E+01  0.3559E+02
   3.580  0.1943E+01  0.3561E+02
   3.590  0.1923E+01  0.3563E+02
   3.600  0.1872E+01  0.3565E+02
   3.610  0.1906E+01  0.3566E+02
   3.620  0.1892E+01  0.3568E+02
   3.630  0.1833E+01  0.3570E+02
   3.640  0.1867E+01  0.3572E+02
   3.650  0.1831E+01  0.3574E+02
   3.660  0.1778E+01  0.3576E+02
   3.670  0.1822E+01  0.3578E+02
   3.680  0.1866E+01  0.3579E+02
   3.690  0.1901E+01  0.3581E+02
   3.700  0.1839E+01  0.3583E+02
   3.710  0.1821E+01  0.3585E+02
   3.720  0.1809E+01  0.3587E+02
   3.730  0.1867E+01  0.3589E+02
   3.740  0.1745E+01  0.3590E+02
   3.750  0.1799E+01  0.3592E+02
   3.760  0.1688E+01  0.3594E+02
   3.770  0.1449E+01  0.3596E+02
   3.780  0.1661E+01  0.3597E+02
   3.790  0.9824E+00  0.3598E+02
   3.800  0.6501E+00  0.3599E+02
   3.810  0.5235E+00  0.3600E+02
   3.820  0.4023E-01  0.3600E+02
   3.830  0.0000E+00  0.3600E+02
   3.840  0.0000E+00  0.3600E+02
   3.850  0.0000E+00  0.3600E+02
   3.860  0.0000E+00  0.3600E+02
   3.870  0.0000E+00  0.3600E+02
   3.880  0.0000E+00  0.3600E+02
   3.890  0.0000E+00  0.3600E+02
   3.900  0.0000E+00  0.3600E+02
   3.910  0.0000E+00  0.3600E+02
   3.920  0.0000E+00  0.3600E+02
   3.930  0.0000E+00  0.3600E+02
   3.940  0.0000E+00  0.3600E+02
   3.950  0.0000E+00  0.3600E+02
   3.960  0.0000E+00  0.3600E+02
   3.970  0.0000E+00  0.3600E+02
   3.980  0.0000E+00  0.3600E+02
   3.990  0.0000E+00  0.3600E+02
   4.000  0.0000E+00  0.3600E+02
   4.010  0.0000E+00  0.3600E+02
   4.020  0.0000E+00  0.3600E+02
   4.030  0.0000E+00  0.3600E+02
   4.040  0.0000E+00  0.3600E+02
   4.050  0.0000E+00  0.3600E+02
   4.060  0.0000E+00  0.3600E+02
   4.070  0.0000E+00  0.3600E+02
   4.080  0.0000E+00  0.3600E+02
   4.090  0.0000E+00  0.3600E+02
   4.100  0.0000E+00  0.3600E+02
   4.110  0.0000E+00  0.3600E+02
   4.120  0.0000E+00  0.3600E+02
   4.130  0.0000E+00  0.3600E+02
   4.140  0.0000E+00  0.3600E+02
   4.150  0.0000E+00  0.3600E+02
   4.160  0.0000E+00  0.3600E+02
   4.170  0.0000E+00  0.3600E+02
   4.180  0.0000E+00  0.3600E+02
   4.190  0.0000E+00  0.3600E+02
   4.200  0.0000E+00  0.3600E+02
   4.210  0.0000E+00  0.3600E+02
   4.220  0.0000E+00  0.3600E+02
   4.230  0.0000E+00  0.3600E+02
   4.240  0.0000E+00  0.3600E+02
   4.250  0.0000E+00  0.3600E+02
   4.260  0.0000E+00  0.3600E+02
   4.270  0.0000E+00  0.3600E+02
   4.280  0.0000E+00  0.3600E+02
   4.290  0.0000E+00  0.3600E+02
   4.300  0.0000E+00  0.3600E+02
   4.310  0.0000E+00  0.3600E+02
   4.320  0.0000E+00  0.3600E+02
   4.330  0.0000E+00  0.3600E+02
   4.340  0.0000E+00  0.3600E+02
   4.350  0.0000E+00  0.3600E+02
   4.360  0.0000E+00  0.3600E+02
   4.370  0.0000E+00  0.3600E+02
   4.380  0.0000E+00  0.3600E+02
   4.390  0.0000E+00  0.3600E+02
   4.400  0.0000E+00  0.3600E+02
   4.410  0.0000E+00  0.3600E+02
   4.420  0.0000E+00  0.3600E+02
   4.430  0.0000E+00  0.3600E+02
   4.440  0.0000E+00  0.3600E+02
   4.450  0.0000E+00  0.3600E+02
   4.460  0.0000E+00  0.3600E+02
   4.470  0.0000E+00  0.3600E+02
   4.480  0.0000E+00  0.3600E+02
   4.490  0.0000E+00  0.3600E+02
   4.500  0.0000E+00  0.3600E+02
   4.510  0.0000E+00  0.3600E+02
   4.520  0.0000E+00  0.3600E+02
   4.530  0.0000E+00  0.3600E+02
   4.540  0.0000E+00  0.3600E+02
   4.550  0.0000E+00  0.3600E+02
   4.560  0.0000E+00  0.3600E+02
   4.570  0.0000E+00  0.3600E+02
   4.580  0.0000E+00  0.3600E+02
   4.590  0.0000E+00  0.3600E+02
   4.600  0.0000E+00  0.3600E+02
   4.610  0.0000E+00  0.3600E+02
   4.620  0.0000E+00  0.3600E+02
   4.630  0.0000E+00  0.3600E+02
   4.640  0.0000E+00  0.3600E+02
   4.650  0.0000E+00  0.3600E+02
   4.660  0.0000E+00  0.3600E+02
   4.670  0.0000E+00  0.3600E+02
   4.680  0.0000E+00  0.3600E+02
   4.690  0.0000E+00  0.3600E+02
   4.700  0.0000E+00  0.3600E+02
   4.710  0.0000E+00  0.3600E+02
   4.720  0.0000E+00  0.3600E+02
   4.730  0.0000E+00  0.3600E+02
   4.740  0.0000E+00  0.3600E+02
   4.750  0.0000E+00  0.3600E+02
   4.760  0.0000E+00  0.3600E+02
   4.770  0.0000E+00  0.3600E+02
   4.780  0.0000E+00  0.3600E+02
   4.790  0.0000E+00  0.3600E+02
   4.800  0.0000E+00  0.3600E+02
   4.810  0.0000E+00  0.3600E+02
   4.820  0.0000E+00  0.3600E+02
   4.830  0.0000E+00  0.3600E+02
   4.840  0.0000E+00  0.3600E+02
   4.850  0.0000E+00  0.3600E+02
   4.860  0.0000E+00  0.3600E+02
   4.870  0.0000E+00  0.3600E+02
   4.880  0.0000E+00  0.3600E+02
   4.890  0.0000E+00  0.3600E+02
   4.900  0.0000E+00  0.3600E+02
   4.910  0.0000E+00  0.3600E+02
   4.920  0.0000E+00  0.3600E+02
   4.930  0.0000E+00  0.3600E+02
   4.940  0.0000E+00  0.3600E+02
   4.950  0.0000E+00  0.3600E+02
   4.960  0.0000E+00  0.3600E+02
   4.970  0.0000E+00  0.3600E+02
   4.980  0.0000E+00  0.3600E+02
   4.990  0.0000E+00  0.3600E+02
   5.000  0.0000E+00  0.3600E+02
   5.010  0.0000E+00  0.3600E+02
   5.020  0.0000E+00  0.3600E+02
   5.030  0.0000E+00  0.3600E+02
   5.040  0.0000E+00  0.3600E+02
   5.050  0.0000E+00  0.3600E+02
   5.060  0.0000E+00  0.3600E+02
   5.070  0.0000E+00  0.3600E+02
   5.080  0.0000E+00  0.3600E+02
   5.090  0.0000E+00  0.3600E+02
   5.100  0.0000E+00  0.3600E+02
   5.110  0.0000E+00  0.3600E+02
   5.120  0.0000E+00  0.3600E+02
   5.130  0.0000E+00  0.3600E+02
   5.140  0.0000E+00  0.3600E+02
   5.150  0.0000E+00  0.3600E+02
   5.160  0.0000E+00  0.3600E+02
   5.170  0.0000E+00  0.3600E+02
   5.180  0.0000E+00  0.3600E+02
   5.190  0.0000E+00  0.3600E+02
   5.200  0.0000E+00  0.3600E+02
   5.210  0.0000E+00  0.3600E+02
   5.220  0.0000E+00  0.3600E+02
   5.230  0.0000E+00  0.3600E+02
   5.240  0.0000E+00  0.3600E+02
   5.250  0.0000E+00  0.3600E+02
   5.260  0.0000E+00  0.3600E+02
   5.270  0.1201E+00  0.3600E+02
   5.280  0.2556E+00  0.3600E+02
   5.290  0.2777E+00  0.3601E+02
   5.300  0.4587E+00  0.3601E+02
   5.310  0.5572E+00  0.3601E+02
   5.320  0.5585E+00  0.3602E+02
   5.330  0.6323E+00  0.3603E+02
   5.340  0.6054E+00  0.3603E+02
   5.350  0.5858E+00  0.3604E+02
   5.360  0.6348E+00  0.3604E+02
   5.370  0.6416E+00  0.3605E+02
   5.380  0.6189E+00  0.3606E+02
   5.390  0.6625E+00  0.3606E+02
   5.400  0.6831E+00  0.3607E+02
   5.410  0.6528E+00  0.3608E+02
   5.420  0.6618E+00  0.3608E+02
   5.430  0.6989E+00  0.3609E+02
   5.440  0.7133E+00  0.3610E+02
   5.450  0.7220E+00  0.3610E+02
   5.460  0.7377E+00  0.3611E+02
   5.470  0.7917E+00  0.3612E+02
   5.480  0.9896E+00  0.3613E+02
   5.490  0.1165E+01  0.3614E+02
   5.500  0.1330E+01  0.3615E+02
   5.510  0.1999E+01  0.3617E+02
   5.520  0.1773E+01  0.3618E+02
   5.530  0.1889E+01  0.3620E+02
   5.540  0.1819E+01  0.3622E+02
   5.550  0.1888E+01  0.3624E+02
   5.560  0.1980E+01  0.3626E+02
   5.570  0.2000E+01  0.3628E+02
   5.580  0.2046E+01  0.3630E+02
   5.590  0.2449E+01  0.3632E+02
   5.600  0.2699E+01  0.3635E+02
   5.610  0.3046E+01  0.3638E+02
   5.620  0.3213E+01  0.3641E+02
   5.630  0.3492E+01  0.3644E+02
   5.640  0.3832E+01  0.3648E+02
   5.650  0.4093E+01  0.3652E+02
   5.660  0.4274E+01  0.3656E+02
   5.670  0.4275E+01  0.3660E+02
   5.680  0.3953E+01  0.3664E+02
   5.690  0.3786E+01  0.3668E+02
   5.700  0.3702E+01  0.3672E+02
   5.710  0.3744E+01  0.3676E+02
   5.720  0.4004E+01  0.3679E+02
   5.730  0.4214E+01  0.3684E+02
   5.740  0.4063E+01  0.3688E+02
   5.750  0.3758E+01  0.3692E+02
   5.760  0.3354E+01  0.3695E+02
   5.770  0.3075E+01  0.3698E+02
   5.780  0.2893E+01  0.3701E+02
   5.790  0.2756E+01  0.3704E+02
   5.800  0.2637E+01  0.3707E+02
   5.810  0.2550E+01  0.3709E+02
   5.820  0.2463E+01  0.3712E+02
   5.830  0.2370E+01  0.3714E+02
   5.840  0.2285E+01  0.3717E+02
   5.850  0.2211E+01  0.3719E+02
   5.860  0.2146E+01  0.3721E+02
   5.870  0.2087E+01  0.3723E+02
   5.880  0.2033E+01  0.3725E+02
   5.890  0.1975E+01  0.3727E+02
   5.900  0.1930E+01  0.3729E+02
   5.910  0.1891E+01  0.3731E+02
   5.920  0.1858E+01  0.3733E+02
   5.930  0.1824E+01  0.3735E+02
   5.940  0.1783E+01  0.3737E+02
   5.950  0.1739E+01  0.3738E+02
   5.960  0.1702E+01  0.3740E+02
   5.970  0.1674E+01  0.3742E+02
   5.980  0.1651E+01  0.3744E+02
   5.990  0.1626E+01  0.3745E+02
   6.000  0.1600E+01  0.3747E+02
   6.010  0.1571E+01  0.3748E+02
   6.020  0.1542E+01  0.3750E+02
   6.030  0.1513E+01  0.3751E+02
   6.040  0.1489E+01  0.3753E+02
   6.050  0.1471E+01  0.3754E+02
   6.060  0.1453E+01  0.3756E+02
   6.070  0.1434E+01  0.3757E+02
   6.080  0.1413E+01  0.3759E+02
   6.090  0.1391E+01  0.3760E+02
   6.100  0.1371E+01  0.3762E+02
   6.110  0.1351E+01  0.3763E+02
   6.120  0.1333E+01  0.3764E+02
   6.130  0.1320E+01  0.3766E+02
   6.140  0.1307E+01  0.3767E+02
   6.150  0.1293E+01  0.3768E+02
   6.160  0.1278E+01  0.3769E+02
   6.170  0.1264E+01  0.3771E+02
   6.180  0.1249E+01  0.3772E+02
   6.190  0.1235E+01  0.3773E+02
   6.200  0.1221E+01  0.3774E+02
   6.210  0.1207E+01  0.3776E+02
   6.220  0.1193E+01  0.3777E+02
   6.230  0.1182E+01  0.3778E+02
   6.240  0.1170E+01  0.3779E+02
   6.250  0.1157E+01  0.3780E+02
   6.260  0.1144E+01  0.3782E+02
   6.270  0.1132E+01  0.3783E+02
   6.280  0.1122E+01  0.3784E+02
   6.290  0.1113E+01  0.3785E+02
   6.300  0.1102E+01  0.3786E+02
   6.310  0.1090E+01  0.3787E+02
   6.320  0.1082E+01  0.3788E+02
   6.330  0.1075E+01  0.3789E+02
   6.340  0.1066E+01  0.3790E+02
   6.350  0.1058E+01  0.3791E+02
   6.360  0.1049E+01  0.3793E+02
   6.370  0.1040E+01  0.3794E+02
   6.380  0.1033E+01  0.3795E+02
   6.390  0.1024E+01  0.3796E+02
   6.400  0.1015E+01  0.3797E+02
   6.410  0.1005E+01  0.3798E+02
   6.420  0.9958E+00  0.3799E+02
   6.430  0.9878E+00  0.3800E+02
   6.440  0.9809E+00  0.3801E+02
   6.450  0.9732E+00  0.3802E+02
   6.460  0.9639E+00  0.3803E+02
   6.470  0.9551E+00  0.3804E+02
   6.480  0.9482E+00  0.3804E+02
   6.490  0.9432E+00  0.3805E+02
   6.500  0.9383E+00  0.3806E+02
   6.510  0.9321E+00  0.3807E+02
   6.520  0.9252E+00  0.3808E+02
   6.530  0.9195E+00  0.3809E+02
   6.540  0.9168E+00  0.3810E+02
   6.550  0.9123E+00  0.3811E+02
   6.560  0.9060E+00  0.3812E+02
   6.570  0.8995E+00  0.3813E+02
   6.580  0.8916E+00  0.3814E+02
   6.590  0.8845E+00  0.3815E+02
   6.600  0.8783E+00  0.3815E+02
   6.610  0.8723E+00  0.3816E+02
   6.620  0.8661E+00  0.3817E+02
   6.630  0.8597E+00  0.3818E+02
   6.640  0.8532E+00  0.3819E+02
   6.650  0.8477E+00  0.3820E+02
   6.660  0.8433E+00  0.3821E+02
   6.670  0.8395E+00  0.3821E+02
   6.680  0.8344E+00  0.3822E+02
   6.690  0.8281E+00  0.3823E+02
   6.700  0.8229E+00  0.3824E+02
   6.710  0.8195E+00  0.3825E+02
   6.720  0.8168E+00  0.3826E+02
   6.730  0.8159E+00  0.3826E+02
   6.740  0.8129E+00  0.3827E+02
   6.750  0.8068E+00  0.3828E+02
   6.760  0.8032E+00  0.3829E+02
   6.770  0.7979E+00  0.3830E+02
   6.780  0.7927E+00  0.3830E+02
   6.790  0.7876E+00  0.3831E+02
   6.800  0.7823E+00  0.3832E+02
   6.810  0.7768E+00  0.3833E+02
   6.820  0.7716E+00  0.3834E+02
   6.830  0.7674E+00  0.3834E+02
   6.840  0.7638E+00  0.3835E+02
   6.850  0.7601E+00  0.3836E+02
   6.860  0.7560E+00  0.3837E+02
   6.870  0.7517E+00  0.3837E+02
   6.880  0.7462E+00  0.3838E+02
   6.890  0.7416E+00  0.3839E+02
   6.900  0.7397E+00  0.3840E+02
   6.910  0.7389E+00  0.3840E+02
   6.920  0.7380E+00  0.3841E+02
   6.930  0.7343E+00  0.3842E+02
   6.940  0.7328E+00  0.3843E+02
   6.950  0.7299E+00  0.3843E+02
   6.960  0.7275E+00  0.3844E+02
   6.970  0.7246E+00  0.3845E+02
   6.980  0.7199E+00  0.3845E+02
   6.990  0.7205E+00  0.3846E+02
   7.000  0.7783E+00  0.3847E+02
   7.010  0.8500E+00  0.3848E+02
   7.020  0.9237E+00  0.3849E+02
   7.030  0.1004E+01  0.3850E+02
   7.040  0.1087E+01  0.3851E+02
   7.050  0.1253E+01  0.3852E+02
   7.060  0.1370E+01  0.3853E+02
   7.070  0.1365E+01  0.3855E+02
   7.080  0.1400E+01  0.3856E+02
   7.090  0.1400E+01  0.3857E+02
   7.100  0.1370E+01  0.3859E+02
   7.110  0.1382E+01  0.3860E+02
   7.120  0.1401E+01  0.3861E+02
   7.130  0.1421E+01  0.3863E+02
   7.140  0.1431E+01  0.3864E+02
   7.150  0.1416E+01  0.3866E+02
   7.160  0.1438E+01  0.3867E+02
   7.170  0.1572E+01  0.3869E+02
   7.180  0.1802E+01  0.3870E+02
   7.190  0.1849E+01  0.3872E+02
   7.200  0.1963E+01  0.3874E+02
   7.210  0.2022E+01  0.3876E+02
   7.220  0.2112E+01  0.3878E+02
   7.230  0.2188E+01  0.3880E+02
   7.240  0.2249E+01  0.3883E+02
   7.250  0.2283E+01  0.3885E+02
   7.260  0.2313E+01  0.3887E+02
   7.270  0.2316E+01  0.3889E+02
   7.280  0.2328E+01  0.3892E+02
   7.290  0.2344E+01  0.3894E+02
   7.300  0.2376E+01  0.3896E+02
   7.310  0.2416E+01  0.3899E+02
   7.320  0.2438E+01  0.3901E+02
   7.330  0.2452E+01  0.3904E+02
   7.340  0.2507E+01  0.3906E+02
   7.350  0.2581E+01  0.3909E+02
   7.360  0.2630E+01  0.3911E+02
   7.370  0.2634E+01  0.3914E+02
   7.380  0.2636E+01  0.3917E+02
   7.390  0.2662E+01  0.3919E+02
   7.400  0.2675E+01  0.3922E+02
   7.410  0.2680E+01  0.3925E+02
   7.420  0.2704E+01  0.3927E+02
   7.430  0.2846E+01  0.3930E+02
   7.440  0.3005E+01  0.3933E+02
   7.450  0.3182E+01  0.3936E+02
   7.460  0.3346E+01  0.3939E+02
   7.470  0.3762E+01  0.3943E+02
   7.480  0.3809E+01  0.3947E+02
   7.490  0.3899E+01  0.3951E+02
   7.500  0.3974E+01  0.3954E+02
   7.510  0.3854E+01  0.3958E+02
   7.520  0.3878E+01  0.3962E+02
   7.530  0.3903E+01  0.3966E+02
   7.540  0.3800E+01  0.3970E+02
   7.550  0.3820E+01  0.3974E+02
   7.560  0.3832E+01  0.3978E+02
   7.570  0.4197E+01  0.3982E+02
   7.580  0.4310E+01  0.3986E+02
   7.590  0.4448E+01  0.3990E+02
   7.600  0.4550E+01  0.3995E+02
   7.610  0.4694E+01  0.3999E+02
   7.620  0.4829E+01  0.4004E+02
   7.630  0.4913E+01  0.4009E+02
   7.640  0.4918E+01  0.4014E+02
   7.650  0.4954E+01  0.4019E+02
   7.660  0.4873E+01  0.4024E+02
   7.670  0.4853E+01  0.4029E+02
   7.680  0.4708E+01  0.4034E+02
   7.690  0.4626E+01  0.4038E+02
   7.700  0.4575E+01  0.4043E+02
   7.710  0.4694E+01  0.4047E+02
   7.720  0.4810E+01  0.4052E+02
   7.730  0.4890E+01  0.4057E+02
   7.740  0.5061E+01  0.4062E+02
   7.750  0.5275E+01  0.4067E+02
   7.760  0.5389E+01  0.4073E+02
   7.770  0.5021E+01  0.4078E+02
   7.780  0.4030E+01  0.4082E+02
   7.790  0.3746E+01  0.4086E+02
   7.800  0.3709E+01  0.4090E+02
   7.810  0.4109E+01  0.4094E+02
   7.820  0.4489E+01  0.4098E+02
   7.830  0.4931E+01  0.4103E+02
   7.840  0.5150E+01  0.4108E+02
   7.850  0.5192E+01  0.4113E+02
   7.860  0.5146E+01  0.4118E+02
   7.870  0.5267E+01  0.4123E+02
   7.880  0.5316E+01  0.4129E+02
   7.890  0.5487E+01  0.4134E+02
   7.900  0.5637E+01  0.4140E+02
   7.910  0.5834E+01  0.4145E+02
   7.920  0.6230E+01  0.4152E+02
   7.930  0.6032E+01  0.4158E+02
   7.940  0.5975E+01  0.4164E+02
   7.950  0.6025E+01  0.4170E+02
   7.960  0.5939E+01  0.4176E+02
   7.970  0.5896E+01  0.4182E+02
   7.980  0.5668E+01  0.4187E+02
   7.990  0.5628E+01  0.4193E+02
   8.000  0.5681E+01  0.4199E+02
   8.010  0.5841E+01  0.4204E+02
   8.020  0.5969E+01  0.4210E+02
   8.030  0.5996E+01  0.4216E+02
   8.040  0.5966E+01  0.4222E+02
   8.050  0.5943E+01  0.4228E+02
   8.060  0.6002E+01  0.4234E+02
   8.070  0.5912E+01  0.4240E+02
   8.080  0.5873E+01  0.4246E+02
   8.090  0.5836E+01  0.4252E+02
   8.100  0.5774E+01  0.4258E+02
   8.110  0.5726E+01  0.4263E+02
   8.120  0.5710E+01  0.4269E+02
   8.130  0.5737E+01  0.4275E+02
   8.140  0.6054E+01  0.4281E+02
   8.150  0.5829E+01  0.4287E+02
   8.160  0.5594E+01  0.4292E+02
   8.170  0.5473E+01  0.4298E+02
   8.180  0.5472E+01  0.4303E+02
   8.190  0.5514E+01  0.4309E+02
   8.200  0.5594E+01  0.4314E+02
   8.210  0.5886E+01  0.4320E+02
   8.220  0.5871E+01  0.4326E+02
   8.230  0.5711E+01  0.4332E+02
   8.240  0.5761E+01  0.4337E+02
   8.250  0.5951E+01  0.4343E+02
   8.260  0.5895E+01  0.4349E+02
   8.270  0.5756E+01  0.4355E+02
   8.280  0.5622E+01  0.4361E+02
   8.290  0.5704E+01  0.4367E+02
   8.300  0.4707E+01  0.4372E+02
   8.310  0.4710E+01  0.4376E+02
   8.320  0.4750E+01  0.4381E+02
   8.330  0.4805E+01  0.4386E+02
   8.340  0.4756E+01  0.4391E+02
   8.350  0.4838E+01  0.4395E+02
   8.360  0.4865E+01  0.4400E+02
   8.370  0.4872E+01  0.4405E+02
   8.380  0.4843E+01  0.4410E+02
   8.390  0.4820E+01  0.4415E+02
   8.400  0.4821E+01  0.4420E+02
   8.410  0.4789E+01  0.4425E+02
   8.420  0.4754E+01  0.4429E+02
   8.430  0.4654E+01  0.4434E+02
   8.440  0.4445E+01  0.4439E+02
   8.450  0.4253E+01  0.4443E+02
   8.460  0.4077E+01  0.4447E+02
   8.470  0.3902E+01  0.4451E+02
   8.480  0.3720E+01  0.4455E+02
   8.490  0.3553E+01  0.4459E+02
   8.500  0.3343E+01  0.4462E+02
   8.510  0.3228E+01  0.4465E+02
   8.520  0.3134E+01  0.4468E+02
   8.530  0.3290E+01  0.4472E+02
   8.540  0.3441E+01  0.4475E+02
   8.550  0.3505E+01  0.4478E+02
   8.560  0.3602E+01  0.4482E+02
   8.570  0.3869E+01  0.4486E+02
   8.580  0.4024E+01  0.4490E+02
   8.590  0.3960E+01  0.4494E+02
   8.600  0.3998E+01  0.4498E+02
   8.610  0.3979E+01  0.4502E+02
   8.620  0.3939E+01  0.4506E+02
   8.630  0.3967E+01  0.4510E+02
   8.640  0.4105E+01  0.4513E+02
   8.650  0.4024E+01  0.4518E+02
   8.660  0.3967E+01  0.4522E+02
   8.670  0.3972E+01  0.4525E+02
   8.680  0.4010E+01  0.4529E+02
   8.690  0.4117E+01  0.4533E+02
   8.700  0.4140E+01  0.4538E+02
   8.710  0.4220E+01  0.4542E+02
   8.720  0.4232E+01  0.4546E+02
   8.730  0.4299E+01  0.4550E+02
   8.740  0.4386E+01  0.4555E+02
   8.750  0.4502E+01  0.4559E+02
   8.760  0.4619E+01  0.4564E+02
   8.770  0.4684E+01  0.4568E+02
   8.780  0.4742E+01  0.4573E+02
   8.790  0.4768E+01  0.4578E+02
   8.800  0.4804E+01  0.4583E+02
   8.810  0.4859E+01  0.4587E+02
   8.820  0.4924E+01  0.4592E+02
   8.830  0.5020E+01  0.4597E+02
   8.840  0.5100E+01  0.4602E+02
   8.850  0.5213E+01  0.4607E+02
   8.860  0.5168E+01  0.4613E+02
   8.870  0.5019E+01  0.4618E+02
   8.880  0.4827E+01  0.4623E+02
   8.890  0.4670E+01  0.4627E+02
   8.900  0.4620E+01  0.4632E+02
   8.910  0.4615E+01  0.4637E+02
   8.920  0.4364E+01  0.4641E+02
   8.930  0.4197E+01  0.4646E+02
   8.940  0.4109E+01  0.4650E+02
   8.950  0.4025E+01  0.4654E+02
   8.960  0.3969E+01  0.4658E+02
   8.970  0.3849E+01  0.4662E+02
   8.980  0.3770E+01  0.4665E+02
   8.990  0.3707E+01  0.4669E+02
   9.000  0.3644E+01  0.4673E+02
   9.010  0.3573E+01  0.4676E+02
   9.020  0.3528E+01  0.4680E+02
   9.030  0.3510E+01  0.4684E+02
   9.040  0.3457E+01  0.4687E+02
   9.050  0.3402E+01  0.4690E+02
   9.060  0.3345E+01  0.4694E+02
   9.070  0.3300E+01  0.4697E+02
   9.080  0.3284E+01  0.4700E+02
   9.090  0.3277E+01  0.4704E+02
   9.100  0.3255E+01  0.4707E+02
   9.110  0.3236E+01  0.4710E+02
   9.120  0.3229E+01  0.4713E+02
   9.130  0.3227E+01  0.4717E+02
   9.140  0.3231E+01  0.4720E+02
   9.150  0.3210E+01  0.4723E+02
   9.160  0.3183E+01  0.4726E+02
   9.170  0.3164E+01  0.4730E+02
   9.180  0.3156E+01  0.4733E+02
   9.190  0.3153E+01  0.4736E+02
   9.200  0.3140E+01  0.4739E+02
   9.210  0.3094E+01  0.4742E+02
   9.220  0.3074E+01  0.4745E+02
   9.230  0.3066E+01  0.4748E+02
   9.240  0.3066E+01  0.4751E+02
   9.250  0.3065E+01  0.4754E+02
   9.260  0.3067E+01  0.4757E+02
   9.270  0.3074E+01  0.4761E+02
   9.280  0.3083E+01  0.4764E+02
   9.290  0.3092E+01  0.4767E+02
   9.300  0.3104E+01  0.4770E+02
   9.310  0.3123E+01  0.4773E+02
   9.320  0.3125E+01  0.4776E+02
   9.330  0.3141E+01  0.4779E+02
   9.340  0.3116E+01  0.4782E+02
   9.350  0.3100E+01  0.4785E+02
   9.360  0.3070E+01  0.4788E+02
   9.370  0.3074E+01  0.4792E+02
   9.380  0.3085E+01  0.4795E+02
   9.390  0.3097E+01  0.4798E+02
   9.400  0.3107E+01  0.4801E+02
   9.410  0.3122E+01  0.4804E+02
   9.420  0.3141E+01  0.4807E+02
   9.430  0.3148E+01  0.4810E+02
   9.440  0.3172E+01  0.4813E+02
   9.450  0.3188E+01  0.4817E+02
   9.460  0.3210E+01  0.4820E+02
   9.470  0.3232E+01  0.4823E+02
   9.480  0.3262E+01  0.4826E+02
   9.490  0.3276E+01  0.4829E+02
   9.500  0.3282E+01  0.4833E+02
   9.510  0.3291E+01  0.4836E+02
   9.520  0.3322E+01  0.4839E+02
   9.530  0.3345E+01  0.4843E+02
   9.540  0.3378E+01  0.4846E+02
   9.550  0.3407E+01  0.4849E+02
   9.560  0.3424E+01  0.4853E+02
   9.570  0.3457E+01  0.4856E+02
   9.580  0.3496E+01  0.4860E+02
   9.590  0.3559E+01  0.4863E+02
   9.600  0.3641E+01  0.4867E+02
   9.610  0.3725E+01  0.4871E+02
   9.620  0.3808E+01  0.4874E+02
   9.630  0.3894E+01  0.4878E+02
   9.640  0.4017E+01  0.4882E+02
   9.650  0.4173E+01  0.4886E+02
   9.660  0.4333E+01  0.4890E+02
   9.670  0.4491E+01  0.4895E+02
   9.680  0.4540E+01  0.4899E+02
   9.690  0.4493E+01  0.4904E+02
   9.700  0.4524E+01  0.4908E+02
   9.710  0.4619E+01  0.4913E+02
   9.720  0.4857E+01  0.4918E+02
   9.730  0.4765E+01  0.4922E+02
   9.740  0.4660E+01  0.4927E+02
   9.750  0.4540E+01  0.4932E+02
   9.760  0.4427E+01  0.4936E+02
   9.770  0.4366E+01  0.4941E+02
   9.780  0.4270E+01  0.4945E+02
   9.790  0.4216E+01  0.4949E+02
   9.800  0.4172E+01  0.4953E+02
   9.810  0.4208E+01  0.4958E+02
   9.820  0.4302E+01  0.4962E+02
   9.830  0.4414E+01  0.4966E+02
   9.840  0.4511E+01  0.4971E+02
   9.850  0.4564E+01  0.4975E+02
   9.860  0.4593E+01  0.4980E+02
   9.870  0.4588E+01  0.4984E+02
   9.880  0.4634E+01  0.4989E+02
   9.890  0.4675E+01  0.4994E+02
   9.900  0.4701E+01  0.4998E+02
   9.910  0.4799E+01  0.5003E+02
   9.920  0.4824E+01  0.5008E+02
   9.930  0.4851E+01  0.5013E+02
   9.940  0.4836E+01  0.5018E+02
   9.950  0.4842E+01  0.5022E+02
   9.960  0.4867E+01  0.5027E+02
   9.970  0.4903E+01  0.5032E+02
   9.980  0.4937E+01  0.5037E+02
   9.990  0.4962E+01  0.5042E+02
  10.000  0.4995E+01  0.5047E+02
  10.010  0.5035E+01  0.5052E+02
  10.020  0.5077E+01  0.5057E+02
  10.030  0.5114E+01  0.5062E+02
  10.040  0.5173E+01  0.5067E+02
  10.050  0.5247E+01  0.5072E+02
  10.060  0.5438E+01  0.5078E+02
  10.070  0.5381E+01  0.5083E+02
  10.080  0.5928E+01  0.5089E+02
  10.090  0.6396E+01  0.5095E+02
  10.100  0.5428E+01  0.5101E+02
  10.110  0.5457E+01  0.5106E+02
  10.120  0.5379E+01  0.5111E+02
  10.130  0.5382E+01  0.5117E+02
  10.140  0.5231E+01  0.5122E+02
  10.150  0.5278E+01  0.5127E+02
  10.160  0.5281E+01  0.5133E+02
  10.170  0.5077E+01  0.5138E+02
  10.180  0.4856E+01  0.5143E+02
  10.190  0.4765E+01  0.5148E+02
  10.200  0.4736E+01  0.5152E+02
  10.210  0.4731E+01  0.5157E+02
  10.220  0.4684E+01  0.5162E+02
  10.230  0.4525E+01  0.5166E+02
  10.240  0.4492E+01  0.5171E+02
  10.250  0.4522E+01  0.5175E+02
  10.260  0.4559E+01  0.5180E+02
  10.270  0.4708E+01  0.5185E+02
  10.280  0.4664E+01  0.5189E+02
  10.290  0.4694E+01  0.5194E+02
  10.300  0.4698E+01  0.5199E+02
  10.310  0.4792E+01  0.5204E+02
  10.320  0.4847E+01  0.5208E+02
  10.330  0.4885E+01  0.5213E+02
  10.340  0.5009E+01  0.5218E+02
  10.350  0.5107E+01  0.5223E+02
  10.360  0.5205E+01  0.5228E+02
  10.370  0.5398E+01  0.5234E+02
  10.380  0.5620E+01  0.5239E+02
  10.390  0.5810E+01  0.5245E+02
  10.400  0.6225E+01  0.5251E+02
  10.410  0.6581E+01  0.5257E+02
  10.420  0.7001E+01  0.5264E+02
  10.430  0.7716E+01  0.5271E+02
  10.440  0.7539E+01  0.5279E+02
  10.450  0.7560E+01  0.5286E+02
  10.460  0.7355E+01  0.5294E+02
  10.470  0.7316E+01  0.5301E+02
  10.480  0.7388E+01  0.5308E+02
  10.490  0.7454E+01  0.5316E+02
  10.500  0.7496E+01  0.5323E+02
  10.510  0.7419E+01  0.5331E+02
  10.520  0.7586E+01  0.5338E+02
  10.530  0.7381E+01  0.5346E+02
  10.540  0.7596E+01  0.5353E+02
  10.550  0.7194E+01  0.5361E+02
  10.560  0.6950E+01  0.5368E+02
  10.570  0.7378E+01  0.5375E+02
  10.580  0.6495E+01  0.5381E+02
  10.590  0.6360E+01  0.5388E+02
  10.600  0.6250E+01  0.5394E+02
  10.610  0.6140E+01  0.5400E+02
  10.620  0.6076E+01  0.5406E+02
  10.630  0.6182E+01  0.5412E+02
  10.640  0.6392E+01  0.5419E+02
  10.650  0.6297E+01  0.5425E+02
  10.660  0.6243E+01  0.5431E+02
  10.670  0.6245E+01  0.5438E+02
  10.680  0.6017E+01  0.5444E+02
  10.690  0.5938E+01  0.5450E+02
  10.700  0.5864E+01  0.5456E+02
  10.710  0.5536E+01  0.5461E+02
  10.720  0.5557E+01  0.5467E+02
  10.730  0.5549E+01  0.5472E+02
  10.740  0.5784E+01  0.5478E+02
  10.750  0.5760E+01  0.5484E+02
  10.760  0.5670E+01  0.5490E+02
  10.770  0.5937E+01  0.5495E+02
  10.780  0.6037E+01  0.5501E+02
  10.790  0.6126E+01  0.5508E+02
  10.800  0.6384E+01  0.5514E+02
  10.810  0.6266E+01  0.5520E+02
  10.820  0.6259E+01  0.5526E+02
  10.830  0.6305E+01  0.5533E+02
  10.840  0.6264E+01  0.5539E+02
  10.850  0.6286E+01  0.5545E+02
  10.860  0.6483E+01  0.5552E+02
  10.870  0.6718E+01  0.5558E+02
  10.880  0.7131E+01  0.5565E+02
  10.890  0.8144E+01  0.5573E+02
  10.900  0.7764E+01  0.5581E+02
  10.910  0.7288E+01  0.5588E+02
  10.920  0.7023E+01  0.5595E+02
  10.930  0.6746E+01  0.5602E+02
  10.940  0.6606E+01  0.5609E+02
  10.950  0.6497E+01  0.5616E+02
  10.960  0.6395E+01  0.5622E+02
  10.970  0.6375E+01  0.5628E+02
  10.980  0.6265E+01  0.5635E+02
  10.990  0.6210E+01  0.5641E+02
  11.000  0.6166E+01  0.5647E+02
  11.010  0.6494E+01  0.5654E+02
  11.020  0.6844E+01  0.5660E+02
  11.030  0.7014E+01  0.5667E+02
  11.040  0.7222E+01  0.5674E+02
  11.050  0.7227E+01  0.5681E+02
  11.060  0.7421E+01  0.5689E+02
  11.070  0.7247E+01  0.5696E+02
  11.080  0.7284E+01  0.5703E+02
  11.090  0.7250E+01  0.5711E+02
  11.100  0.6719E+01  0.5718E+02
  11.110  0.6867E+01  0.5725E+02
  11.120  0.6654E+01  0.5732E+02
  11.130  0.6685E+01  0.5738E+02
  11.140  0.6684E+01  0.5745E+02
  11.150  0.6710E+01  0.5752E+02
  11.160  0.6434E+01  0.5758E+02
  11.170  0.6377E+01  0.5765E+02
  11.180  0.6311E+01  0.5771E+02
  11.190  0.6400E+01  0.5777E+02
  11.200  0.6157E+01  0.5784E+02
  11.210  0.5954E+01  0.5790E+02
  11.220  0.5883E+01  0.5796E+02
  11.230  0.5827E+01  0.5802E+02
  11.240  0.5878E+01  0.5807E+02
  11.250  0.5925E+01  0.5813E+02
  11.260  0.5712E+01  0.5819E+02
  11.270  0.5751E+01  0.5825E+02
  11.280  0.5734E+01  0.5831E+02
  11.290  0.5785E+01  0.5836E+02
  11.300  0.5908E+01  0.5842E+02
  11.310  0.6349E+01  0.5848E+02
  11.320  0.6670E+01  0.5855E+02
  11.330  0.6716E+01  0.5861E+02
  11.340  0.7039E+01  0.5868E+02
  11.350  0.7725E+01  0.5876E+02
  11.360  0.7435E+01  0.5883E+02
  11.370  0.6708E+01  0.5891E+02
  11.380  0.6564E+01  0.5897E+02
  11.390  0.6195E+01  0.5904E+02
  11.400  0.6166E+01  0.5910E+02
  11.410  0.6420E+01  0.5916E+02
  11.420  0.6056E+01  0.5922E+02
  11.430  0.5715E+01  0.5928E+02
  11.440  0.5609E+01  0.5934E+02
  11.450  0.5163E+01  0.5939E+02
  11.460  0.5128E+01  0.5944E+02
  11.470  0.5252E+01  0.5950E+02
  11.480  0.5421E+01  0.5955E+02
  11.490  0.5650E+01  0.5960E+02
  11.500  0.5883E+01  0.5966E+02
  11.510  0.6105E+01  0.5972E+02
  11.520  0.6399E+01  0.5979E+02
  11.530  0.6806E+01  0.5985E+02
  11.540  0.7096E+01  0.5992E+02
  11.550  0.6904E+01  0.5999E+02
  11.560  0.6777E+01  0.6006E+02
  11.570  0.6945E+01  0.6013E+02
  11.580  0.6628E+01  0.6020E+02
  11.590  0.6648E+01  0.6026E+02
  11.600  0.6654E+01  0.6033E+02
  11.610  0.6680E+01  0.6040E+02
  11.620  0.6886E+01  0.6046E+02
  11.630  0.6785E+01  0.6053E+02
  11.640  0.6389E+01  0.6060E+02
  11.650  0.5897E+01  0.6066E+02
  11.660  0.5698E+01  0.6072E+02
  11.670  0.5727E+01  0.6077E+02
  11.680  0.5673E+01  0.6083E+02
  11.690  0.5399E+01  0.6089E+02
  11.700  0.5316E+01  0.6094E+02
  11.710  0.5315E+01  0.6099E+02
  11.720  0.5277E+01  0.6105E+02
  11.730  0.5348E+01  0.6110E+02
  11.740  0.5279E+01  0.6115E+02
  11.750  0.5242E+01  0.6121E+02
  11.760  0.5294E+01  0.6126E+02
  11.770  0.5248E+01  0.6131E+02
  11.780  0.5213E+01  0.6136E+02
  11.790  0.5146E+01  0.6142E+02
  11.800  0.5118E+01  0.6147E+02
  11.810  0.5165E+01  0.6152E+02
  11.820  0.5276E+01  0.6157E+02
  11.830  0.5358E+01  0.6162E+02
  11.840  0.5412E+01  0.6168E+02
  11.850  0.5558E+01  0.6173E+02
  11.860  0.5562E+01  0.6179E+02
  11.870  0.5907E+01  0.6184E+02
  11.880  0.5666E+01  0.6190E+02
  11.890  0.5611E+01  0.6196E+02
  11.900  0.5363E+01  0.6201E+02
  11.910  0.5161E+01  0.6207E+02
  11.920  0.5244E+01  0.6212E+02
  11.930  0.4939E+01  0.6217E+02
  11.940  0.4896E+01  0.6222E+02
  11.950  0.4822E+01  0.6226E+02
  11.960  0.4763E+01  0.6231E+02
  11.970  0.4753E+01  0.6236E+02
  11.980  0.4751E+01  0.6241E+02
  11.990  0.4829E+01  0.6246E+02
  12.000  0.4837E+01  0.6250E+02
  12.010  0.4926E+01  0.6255E+02
  12.020  0.4947E+01  0.6260E+02
  12.030  0.5008E+01  0.6265E+02
  12.040  0.5084E+01  0.6270E+02
  12.050  0.5175E+01  0.6275E+02
  12.060  0.5205E+01  0.6281E+02
  12.070  0.5359E+01  0.6286E+02
  12.080  0.5265E+01  0.6291E+02
  12.090  0.5474E+01  0.6297E+02
  12.100  0.5446E+01  0.6302E+02
  12.110  0.5478E+01  0.6307E+02
  12.120  0.5442E+01  0.6313E+02
  12.130  0.5466E+01  0.6318E+02
  12.140  0.5433E+01  0.6324E+02
  12.150  0.5511E+01  0.6329E+02
  12.160  0.5738E+01  0.6335E+02
  12.170  0.5801E+01  0.6341E+02
  12.180  0.6145E+01  0.6347E+02
  12.190  0.6243E+01  0.6353E+02
  12.200  0.6308E+01  0.6359E+02
  12.210  0.6308E+01  0.6365E+02
  12.220  0.6329E+01  0.6372E+02
  12.230  0.6140E+01  0.6378E+02
  12.240  0.6120E+01  0.6384E+02
  12.250  0.5792E+01  0.6390E+02
  12.260  0.5817E+01  0.6396E+02
  12.270  0.5841E+01  0.6402E+02
  12.280  0.5932E+01  0.6408E+02
  12.290  0.5921E+01  0.6414E+02
  12.300  0.5934E+01  0.6420E+02
  12.310  0.6039E+01  0.6425E+02
  12.320  0.6103E+01  0.6432E+02
  12.330  0.6008E+01  0.6438E+02
  12.340  0.5985E+01  0.6444E+02
  12.350  0.6010E+01  0.6450E+02
  12.360  0.6048E+01  0.6456E+02
  12.370  0.6130E+01  0.6462E+02
  12.380  0.6145E+01  0.6468E+02
  12.390  0.6190E+01  0.6474E+02
  12.400  0.6155E+01  0.6480E+02
  12.410  0.6127E+01  0.6486E+02
  12.420  0.6171E+01  0.6493E+02
  12.430  0.6166E+01  0.6499E+02
  12.440  0.6125E+01  0.6505E+02
  12.450  0.6140E+01  0.6511E+02
  12.460  0.6042E+01  0.6517E+02
  12.470  0.6224E+01  0.6523E+02
  12.480  0.6023E+01  0.6529E+02
  12.490  0.5952E+01  0.6535E+02
  12.500  0.5933E+01  0.6541E+02
  12.510  0.5906E+01  0.6547E+02
  12.520  0.5899E+01  0.6553E+02
  12.530  0.5902E+01  0.6559E+02
  12.540  0.6209E+01  0.6565E+02
  12.550  0.6006E+01  0.6571E+02
  12.560  0.6134E+01  0.6577E+02
  12.570  0.6192E+01  0.6583E+02
  12.580  0.6109E+01  0.6590E+02
  12.590  0.6113E+01  0.6596E+02
  12.600  0.6097E+01  0.6602E+02
  12.610  0.6006E+01  0.6608E+02
  12.620  0.6313E+01  0.6614E+02
  12.630  0.6279E+01  0.6620E+02
  12.640  0.6114E+01  0.6627E+02
  12.650  0.6075E+01  0.6633E+02
  12.660  0.5961E+01  0.6639E+02
  12.670  0.5889E+01  0.6645E+02
  12.680  0.5829E+01  0.6650E+02
  12.690  0.5706E+01  0.6656E+02
  12.700  0.5472E+01  0.6662E+02
  12.710  0.5405E+01  0.6667E+02
  12.720  0.5425E+01  0.6673E+02
  12.730  0.5433E+01  0.6678E+02
  12.740  0.5481E+01  0.6684E+02
  12.750  0.5733E+01  0.6689E+02
  12.760  0.5914E+01  0.6695E+02
  12.770  0.6312E+01  0.6701E+02
  12.780  0.5977E+01  0.6707E+02
  12.790  0.6063E+01  0.6713E+02
  12.800  0.6058E+01  0.6719E+02
  12.810  0.6192E+01  0.6725E+02
  12.820  0.6494E+01  0.6731E+02
  12.830  0.6589E+01  0.6738E+02
  12.840  0.6815E+01  0.6745E+02
  12.850  0.6268E+01  0.6751E+02
  12.860  0.5914E+01  0.6757E+02
  12.870  0.6101E+01  0.6763E+02
  12.880  0.6066E+01  0.6769E+02
  12.890  0.6060E+01  0.6775E+02
  12.900  0.5941E+01  0.6781E+02
  12.910  0.5802E+01  0.6787E+02
  12.920  0.6068E+01  0.6793E+02
  12.930  0.5547E+01  0.6799E+02
  12.940  0.5228E+01  0.6804E+02
  12.950  0.5215E+01  0.6810E+02
  12.960  0.5035E+01  0.6815E+02
  12.970  0.4920E+01  0.6820E+02
  12.980  0.4901E+01  0.6825E+02
  12.990  0.4858E+01  0.6829E+02
  13.000  0.4789E+01  0.6834E+02
  13.010  0.4814E+01  0.6839E+02
  13.020  0.4876E+01  0.6844E+02
  13.030  0.4964E+01  0.6849E+02
  13.040  0.5209E+01  0.6854E+02
  13.050  0.5230E+01  0.6859E+02
  13.060  0.5476E+01  0.6864E+02
  13.070  0.5427E+01  0.6870E+02
  13.080  0.5488E+01  0.6875E+02
  13.090  0.5556E+01  0.6881E+02
  13.100  0.5712E+01  0.6886E+02
  13.110  0.5835E+01  0.6892E+02
  13.120  0.6008E+01  0.6898E+02
  13.130  0.6137E+01  0.6904E+02
  13.140  0.6181E+01  0.6910E+02
  13.150  0.6322E+01  0.6917E+02
  13.160  0.6417E+01  0.6923E+02
  13.170  0.6600E+01  0.6930E+02
  13.180  0.7279E+01  0.6937E+02
  13.190  0.6753E+01  0.6943E+02
  13.200  0.6622E+01  0.6950E+02
  13.210  0.6168E+01  0.6957E+02
  13.220  0.5842E+01  0.6963E+02
  13.230  0.5661E+01  0.6968E+02
  13.240  0.5404E+01  0.6974E+02
  13.250  0.5638E+01  0.6980E+02
  13.260  0.5362E+01  0.6985E+02
  13.270  0.4942E+01  0.6990E+02
  13.280  0.4650E+01  0.6995E+02
  13.290  0.4535E+01  0.7000E+02
  13.300  0.4583E+01  0.7004E+02
  13.310  0.4545E+01  0.7009E+02
  13.320  0.4562E+01  0.7013E+02
  13.330  0.4597E+01  0.7018E+02
  13.340  0.4673E+01  0.7023E+02
  13.350  0.4901E+01  0.7027E+02
  13.360  0.4794E+01  0.7032E+02
  13.370  0.4865E+01  0.7037E+02
  13.380  0.4964E+01  0.7042E+02
  13.390  0.5305E+01  0.7047E+02
  13.400  0.5633E+01  0.7053E+02
  13.410  0.5395E+01  0.7058E+02
  13.420  0.5197E+01  0.7063E+02
  13.430  0.5202E+01  0.7069E+02
  13.440  0.5225E+01  0.7074E+02
  13.450  0.5246E+01  0.7079E+02
  13.460  0.5464E+01  0.7084E+02
  13.470  0.5623E+01  0.7090E+02
  13.480  0.5900E+01  0.7096E+02
  13.490  0.6266E+01  0.7102E+02
  13.500  0.6666E+01  0.7108E+02
  13.510  0.6882E+01  0.7115E+02
  13.520  0.7016E+01  0.7122E+02
  13.530  0.7114E+01  0.7129E+02
  13.540  0.7219E+01  0.7136E+02
  13.550  0.7306E+01  0.7143E+02
  13.560  0.7695E+01  0.7151E+02
  13.570  0.7957E+01  0.7159E+02
  13.580  0.8019E+01  0.7167E+02
  13.590  0.7953E+01  0.7175E+02
  13.600  0.7855E+01  0.7183E+02
  13.610  0.7864E+01  0.7191E+02
  13.620  0.7515E+01  0.7198E+02
  13.630  0.7229E+01  0.7206E+02
  13.640  0.6997E+01  0.7213E+02
  13.650  0.6723E+01  0.7220E+02
  13.660  0.6596E+01  0.7226E+02
  13.670  0.6467E+01  0.7233E+02
  13.680  0.6316E+01  0.7239E+02
  13.690  0.6203E+01  0.7245E+02
  13.700  0.6135E+01  0.7252E+02
  13.710  0.6042E+01  0.7258E+02
  13.720  0.5859E+01  0.7264E+02
  13.730  0.5709E+01  0.7269E+02
  13.740  0.5601E+01  0.7275E+02
  13.750  0.5465E+01  0.7281E+02
  13.760  0.5350E+01  0.7286E+02
  13.770  0.5129E+01  0.7291E+02
  13.780  0.5069E+01  0.7296E+02
  13.790  0.5046E+01  0.7301E+02
  13.800  0.4985E+01  0.7306E+02
  13.810  0.4914E+01  0.7311E+02
  13.820  0.4949E+01  0.7316E+02
  13.830  0.4981E+01  0.7321E+02
  13.840  0.5233E+01  0.7326E+02
  13.850  0.5165E+01  0.7331E+02
  13.860  0.5100E+01  0.7337E+02
  13.870  0.5101E+01  0.7342E+02
  13.880  0.5162E+01  0.7347E+02
  13.890  0.5194E+01  0.7352E+02
  13.900  0.5281E+01  0.7357E+02
  13.910  0.5253E+01  0.7362E+02
  13.920  0.5217E+01  0.7368E+02
  13.930  0.5271E+01  0.7373E+02
  13.940  0.5436E+01  0.7378E+02
  13.950  0.5723E+01  0.7384E+02
  13.960  0.5715E+01  0.7390E+02
  13.970  0.5765E+01  0.7395E+02
  13.980  0.5910E+01  0.7401E+02
  13.990  0.6037E+01  0.7407E+02
  14.000  0.6230E+01  0.7413E+02
  14.010  0.6570E+01  0.7420E+02
  14.020  0.6818E+01  0.7427E+02
  14.030  0.7172E+01  0.7434E+02
  14.040  0.6844E+01  0.7441E+02
  14.050  0.6315E+01  0.7447E+02
  14.060  0.6302E+01  0.7454E+02
  14.070  0.5915E+01  0.7460E+02
  14.080  0.5555E+01  0.7465E+02
  14.090  0.5400E+01  0.7471E+02
  14.100  0.5028E+01  0.7476E+02
  14.110  0.4630E+01  0.7481E+02
  14.120  0.4400E+01  0.7485E+02
  14.130  0.4464E+01  0.7490E+02
  14.140  0.4490E+01  0.7494E+02
  14.150  0.4585E+01  0.7499E+02
  14.160  0.4626E+01  0.7503E+02
  14.170  0.4895E+01  0.7508E+02
  14.180  0.4752E+01  0.7513E+02
  14.190  0.4819E+01  0.7518E+02
  14.200  0.4894E+01  0.7523E+02
  14.210  0.4971E+01  0.7527E+02
  14.220  0.4939E+01  0.7532E+02
  14.230  0.5035E+01  0.7537E+02
  14.240  0.5215E+01  0.7543E+02
  14.250  0.5013E+01  0.7548E+02
  14.260  0.4920E+01  0.7553E+02
  14.270  0.4955E+01  0.7558E+02
  14.280  0.4857E+01  0.7562E+02
  14.290  0.5085E+01  0.7567E+02
  14.300  0.5249E+01  0.7573E+02
  14.310  0.5446E+01  0.7578E+02
  14.320  0.5541E+01  0.7583E+02
  14.330  0.5721E+01  0.7589E+02
  14.340  0.6093E+01  0.7595E+02
  14.350  0.5779E+01  0.7601E+02
  14.360  0.5816E+01  0.7607E+02
  14.370  0.5874E+01  0.7613E+02
  14.380  0.5703E+01  0.7618E+02
  14.390  0.5673E+01  0.7624E+02
  14.400  0.5694E+01  0.7630E+02
  14.410  0.6032E+01  0.7636E+02
  14.420  0.5888E+01  0.7642E+02
  14.430  0.5947E+01  0.7647E+02
  14.440  0.5995E+01  0.7653E+02
  14.450  0.6033E+01  0.7659E+02
  14.460  0.6057E+01  0.7665E+02
  14.470  0.6151E+01  0.7672E+02
  14.480  0.6112E+01  0.7678E+02
  14.490  0.6077E+01  0.7684E+02
  14.500  0.6027E+01  0.7690E+02
  14.510  0.6017E+01  0.7696E+02
  14.520  0.5948E+01  0.7702E+02
  14.530  0.5945E+01  0.7708E+02
  14.540  0.5933E+01  0.7714E+02
  14.550  0.5952E+01  0.7720E+02
  14.560  0.6050E+01  0.7726E+02
  14.570  0.6174E+01  0.7732E+02
  14.580  0.6245E+01  0.7738E+02
  14.590  0.6264E+01  0.7744E+02
  14.600  0.6245E+01  0.7751E+02
  14.610  0.6350E+01  0.7757E+02
  14.620  0.6362E+01  0.7763E+02
  14.630  0.6555E+01  0.7770E+02
  14.640  0.6364E+01  0.7776E+02
  14.650  0.6195E+01  0.7783E+02
  14.660  0.6133E+01  0.7789E+02
  14.670  0.6303E+01  0.7795E+02
  14.680  0.6327E+01  0.7801E+02
  14.690  0.6297E+01  0.7807E+02
  14.700  0.6270E+01  0.7814E+02
  14.710  0.6289E+01  0.7820E+02
  14.720  0.6383E+01  0.7826E+02
  14.730  0.6416E+01  0.7833E+02
  14.740  0.6003E+01  0.7839E+02
  14.750  0.5704E+01  0.7845E+02
  14.760  0.5424E+01  0.7850E+02
  14.770  0.5218E+01  0.7856E+02
  14.780  0.5142E+01  0.7861E+02
  14.790  0.5241E+01  0.7866E+02
  14.800  0.5288E+01  0.7871E+02
  14.810  0.5134E+01  0.7877E+02
  14.820  0.5081E+01  0.7882E+02
  14.830  0.5163E+01  0.7887E+02
  14.840  0.5299E+01  0.7892E+02
  14.850  0.5448E+01  0.7897E+02
  14.860  0.5622E+01  0.7903E+02
  14.870  0.5519E+01  0.7909E+02
  14.880  0.5205E+01  0.7914E+02
  14.890  0.5156E+01  0.7919E+02
  14.900  0.5094E+01  0.7924E+02
  14.910  0.5146E+01  0.7929E+02
  14.920  0.5220E+01  0.7935E+02
  14.930  0.5299E+01  0.7940E+02
  14.940  0.5245E+01  0.7945E+02
  14.950  0.5316E+01  0.7950E+02
  14.960  0.5505E+01  0.7956E+02
  14.970  0.5537E+01  0.7961E+02
  14.980  0.5621E+01  0.7967E+02
  14.990  0.5695E+01  0.7973E+02
  15.000  0.5885E+01  0.7978E+02
