#  E (eV)   dos(E)     Int dos(E) EFermi =   -0.691 eV
 -15.000  0.0000E+00  0.4000E+01
 -14.990  0.0000E+00  0.4000E+01
 -14.980  0.0000E+00  0.4000E+01
 -14.970  0.0000E+00  0.4000E+01
 -14.960  0.0000E+00  0.4000E+01
 -14.950  0.0000E+00  0.4000E+01
 -14.940  0.0000E+00  0.4000E+01
 -14.930  0.0000E+00  0.4000E+01
 -14.920  0.0000E+00  0.4000E+01
 -14.910  0.0000E+00  0.4000E+01
 -14.900  0.0000E+00  0.4000E+01
 -14.890  0.0000E+00  0.4000E+01
 -14.880  0.0000E+00  0.4000E+01
 -14.870  0.0000E+00  0.4000E+01
 -14.860  0.0000E+00  0.4000E+01
 -14.850  0.0000E+00  0.4000E+01
 -14.840  0.0000E+00  0.4000E+01
 -14.830  0.0000E+00  0.4000E+01
 -14.820  0.0000E+00  0.4000E+01
 -14.810  0.0000E+00  0.4000E+01
 -14.800  0.0000E+00  0.4000E+01
 -14.790  0.0000E+00  0.4000E+01
 -14.780  0.0000E+00  0.4000E+01
 -14.770  0.0000E+00  0.4000E+01
 -14.760  0.0000E+00  0.4000E+01
 -14.750  0.0000E+00  0.4000E+01
 -14.740  0.0000E+00  0.4000E+01
 -14.730  0.0000E+00  0.4000E+01
 -14.720  0.0000E+00  0.4000E+01
 -14.710  0.0000E+00  0.4000E+01
 -14.700  0.0000E+00  0.4000E+01
 -14.690  0.0000E+00  0.4000E+01
 -14.680  0.0000E+00  0.4000E+01
 -14.670  0.0000E+00  0.4000E+01
 -14.660  0.0000E+00  0.4000E+01
 -14.650  0.0000E+00  0.4000E+01
 -14.640  0.0000E+00  0.4000E+01
 -14.630  0.0000E+00  0.4000E+01
 -14.620  0.0000E+00  0.4000E+01
 -14.610  0.0000E+00  0.4000E+01
 -14.600  0.0000E+00  0.4000E+01
 -14.590  0.0000E+00  0.4000E+01
 -14.580  0.0000E+00  0.4000E+01
 -14.570  0.0000E+00  0.4000E+01
 -14.560  0.0000E+00  0.4000E+01
 -14.550  0.0000E+00  0.4000E+01
 -14.540  0.0000E+00  0.4000E+01
 -14.530  0.0000E+00  0.4000E+01
 -14.520  0.0000E+00  0.4000E+01
 -14.510  0.0000E+00  0.4000E+01
 -14.500  0.0000E+00  0.4000E+01
 -14.490  0.0000E+00  0.4000E+01
 -14.480  0.0000E+00  0.4000E+01
 -14.470  0.0000E+00  0.4000E+01
 -14.460  0.0000E+00  0.4000E+01
 -14.450  0.0000E+00  0.4000E+01
 -14.440  0.0000E+00  0.4000E+01
 -14.430  0.0000E+00  0.4000E+01
 -14.420  0.0000E+00  0.4000E+01
 -14.410  0.0000E+00  0.4000E+01
 -14.400  0.0000E+00  0.4000E+01
 -14.390  0.0000E+00  0.4000E+01
 -14.380  0.0000E+00  0.4000E+01
 -14.370  0.0000E+00  0.4000E+01
 -14.360  0.0000E+00  0.4000E+01
 -14.350  0.0000E+00  0.4000E+01
 -14.340  0.0000E+00  0.4000E+01
 -14.330  0.0000E+00  0.4000E+01
 -14.320  0.0000E+00  0.4000E+01
 -14.310  0.0000E+00  0.4000E+01
 -14.300  0.0000E+00  0.4000E+01
 -14.290  0.0000E+00  0.4000E+01
 -14.280  0.0000E+00  0.4000E+01
 -14.270  0.0000E+00  0.4000E+01
 -14.260  0.0000E+00  0.4000E+01
 -14.250  0.0000E+00  0.4000E+01
 -14.240  0.0000E+00  0.4000E+01
 -14.230  0.0000E+00  0.4000E+01
 -14.220  0.0000E+00  0.4000E+01
 -14.210  0.0000E+00  0.4000E+01
 -14.200  0.0000E+00  0.4000E+01
 -14.190  0.0000E+00  0.4000E+01
 -14.180  0.0000E+00  0.4000E+01
 -14.170  0.0000E+00  0.4000E+01
 -14.160  0.0000E+00  0.4000E+01
 -14.150  0.0000E+00  0.4000E+01
 -14.140  0.0000E+00  0.4000E+01
 -14.130  0.0000E+00  0.4000E+01
 -14.120  0.0000E+00  0.4000E+01
 -14.110  0.0000E+00  0.4000E+01
 -14.100  0.0000E+00  0.4000E+01
 -14.090  0.0000E+00  0.4000E+01
 -14.080  0.0000E+00  0.4000E+01
 -14.070  0.0000E+00  0.4000E+01
 -14.060  0.0000E+00  0.4000E+01
 -14.050  0.0000E+00  0.4000E+01
 -14.040  0.0000E+00  0.4000E+01
 -14.030  0.0000E+00  0.4000E+01
 -14.020  0.0000E+00  0.4000E+01
 -14.010  0.0000E+00  0.4000E+01
 -14.000  0.0000E+00  0.4000E+01
 -13.990  0.0000E+00  0.4000E+01
 -13.980  0.0000E+00  0.4000E+01
 -13.970  0.0000E+00  0.4000E+01
 -13.960  0.0000E+00  0.4000E+01
 -13.950  0.0000E+00  0.4000E+01
 -13.940  0.0000E+00  0.4000E+01
 -13.930  0.0000E+00  0.4000E+01
 -13.920  0.0000E+00  0.4000E+01
 -13.910  0.0000E+00  0.4000E+01
 -13.900  0.0000E+00  0.4000E+01
 -13.890  0.0000E+00  0.4000E+01
 -13.880  0.0000E+00  0.4000E+01
 -13.870  0.0000E+00  0.4000E+01
 -13.860  0.0000E+00  0.4000E+01
 -13.850  0.0000E+00  0.4000E+01
 -13.840  0.0000E+00  0.4000E+01
 -13.830  0.0000E+00  0.4000E+01
 -13.820  0.0000E+00  0.4000E+01
 -13.810  0.0000E+00  0.4000E+01
 -13.800  0.0000E+00  0.4000E+01
 -13.790  0.0000E+00  0.4000E+01
 -13.780  0.0000E+00  0.4000E+01
 -13.770  0.0000E+00  0.4000E+01
 -13.760  0.0000E+00  0.4000E+01
 -13.750  0.0000E+00  0.4000E+01
 -13.740  0.0000E+00  0.4000E+01
 -13.730  0.0000E+00  0.4000E+01
 -13.720  0.0000E+00  0.4000E+01
 -13.710  0.0000E+00  0.4000E+01
 -13.700  0.0000E+00  0.4000E+01
 -13.690  0.0000E+00  0.4000E+01
 -13.680  0.0000E+00  0.4000E+01
 -13.670  0.0000E+00  0.4000E+01
 -13.660  0.0000E+00  0.4000E+01
 -13.650  0.0000E+00  0.4000E+01
 -13.640  0.0000E+00  0.4000E+01
 -13.630  0.0000E+00  0.4000E+01
 -13.620  0.0000E+00  0.4000E+01
 -13.610  0.0000E+00  0.4000E+01
 -13.600  0.0000E+00  0.4000E+01
 -13.590  0.0000E+00  0.4000E+01
 -13.580  0.0000E+00  0.4000E+01
 -13.570  0.0000E+00  0.4000E+01
 -13.560  0.0000E+00  0.4000E+01
 -13.550  0.0000E+00  0.4000E+01
 -13.540  0.0000E+00  0.4000E+01
 -13.530  0.0000E+00  0.4000E+01
 -13.520  0.0000E+00  0.4000E+01
 -13.510  0.0000E+00  0.4000E+01
 -13.500  0.0000E+00  0.4000E+01
 -13.490  0.0000E+00  0.4000E+01
 -13.480  0.0000E+00  0.4000E+01
 -13.470  0.0000E+00  0.4000E+01
 -13.460  0.0000E+00  0.4000E+01
 -13.450  0.0000E+00  0.4000E+01
 -13.440  0.0000E+00  0.4000E+01
 -13.430  0.0000E+00  0.4000E+01
 -13.420  0.0000E+00  0.4000E+01
 -13.410  0.0000E+00  0.4000E+01
 -13.400  0.0000E+00  0.4000E+01
 -13.390  0.0000E+00  0.4000E+01
 -13.380  0.0000E+00  0.4000E+01
 -13.370  0.0000E+00  0.4000E+01
 -13.360  0.0000E+00  0.4000E+01
 -13.350  0.0000E+00  0.4000E+01
 -13.340  0.0000E+00  0.4000E+01
 -13.330  0.0000E+00  0.4000E+01
 -13.320  0.0000E+00  0.4000E+01
 -13.310  0.0000E+00  0.4000E+01
 -13.300  0.0000E+00  0.4000E+01
 -13.290  0.0000E+00  0.4000E+01
 -13.280  0.0000E+00  0.4000E+01
 -13.270  0.0000E+00  0.4000E+01
 -13.260  0.0000E+00  0.4000E+01
 -13.250  0.0000E+00  0.4000E+01
 -13.240  0.0000E+00  0.4000E+01
 -13.230  0.0000E+00  0.4000E+01
 -13.220  0.0000E+00  0.4000E+01
 -13.210  0.0000E+00  0.4000E+01
 -13.200  0.0000E+00  0.4000E+01
 -13.190  0.0000E+00  0.4000E+01
 -13.180  0.0000E+00  0.4000E+01
 -13.170  0.0000E+00  0.4000E+01
 -13.160  0.0000E+00  0.4000E+01
 -13.150  0.0000E+00  0.4000E+01
 -13.140  0.0000E+00  0.4000E+01
 -13.130  0.0000E+00  0.4000E+01
 -13.120  0.0000E+00  0.4000E+01
 -13.110  0.0000E+00  0.4000E+01
 -13.100  0.0000E+00  0.4000E+01
 -13.090  0.0000E+00  0.4000E+01
 -13.080  0.0000E+00  0.4000E+01
 -13.070  0.0000E+00  0.4000E+01
 -13.060  0.0000E+00  0.4000E+01
 -13.050  0.0000E+00  0.4000E+01
 -13.040  0.0000E+00  0.4000E+01
 -13.030  0.0000E+00  0.4000E+01
 -13.020  0.0000E+00  0.4000E+01
 -13.010  0.0000E+00  0.4000E+01
 -13.000  0.0000E+00  0.4000E+01
 -12.990  0.0000E+00  0.4000E+01
 -12.980  0.0000E+00  0.4000E+01
 -12.970  0.0000E+00  0.4000E+01
 -12.960  0.0000E+00  0.4000E+01
 -12.950  0.0000E+00  0.4000E+01
 -12.940  0.0000E+00  0.4000E+01
 -12.930  0.0000E+00  0.4000E+01
 -12.920  0.0000E+00  0.4000E+01
 -12.910  0.0000E+00  0.4000E+01
 -12.900  0.0000E+00  0.4000E+01
 -12.890  0.0000E+00  0.4000E+01
 -12.880  0.0000E+00  0.4000E+01
 -12.870  0.0000E+00  0.4000E+01
 -12.860  0.0000E+00  0.4000E+01
 -12.850  0.0000E+00  0.4000E+01
 -12.840  0.0000E+00  0.4000E+01
 -12.830  0.0000E+00  0.4000E+01
 -12.820  0.0000E+00  0.4000E+01
 -12.810  0.0000E+00  0.4000E+01
 -12.800  0.0000E+00  0.4000E+01
 -12.790  0.0000E+00  0.4000E+01
 -12.780  0.0000E+00  0.4000E+01
 -12.770  0.0000E+00  0.4000E+01
 -12.760  0.0000E+00  0.4000E+01
 -12.750  0.0000E+00  0.4000E+01
 -12.740  0.0000E+00  0.4000E+01
 -12.730  0.0000E+00  0.4000E+01
 -12.720  0.0000E+00  0.4000E+01
 -12.710  0.0000E+00  0.4000E+01
 -12.700  0.0000E+00  0.4000E+01
 -12.690  0.0000E+00  0.4000E+01
 -12.680  0.0000E+00  0.4000E+01
 -12.670  0.0000E+00  0.4000E+01
 -12.660  0.0000E+00  0.4000E+01
 -12.650  0.0000E+00  0.4000E+01
 -12.640  0.0000E+00  0.4000E+01
 -12.630  0.0000E+00  0.4000E+01
 -12.620  0.0000E+00  0.4000E+01
 -12.610  0.0000E+00  0.4000E+01
 -12.600  0.0000E+00  0.4000E+01
 -12.590  0.0000E+00  0.4000E+01
 -12.580  0.0000E+00  0.4000E+01
 -12.570  0.0000E+00  0.4000E+01
 -12.560  0.0000E+00  0.4000E+01
 -12.550  0.0000E+00  0.4000E+01
 -12.540  0.0000E+00  0.4000E+01
 -12.530  0.0000E+00  0.4000E+01
 -12.520  0.0000E+00  0.4000E+01
 -12.510  0.0000E+00  0.4000E+01
 -12.500  0.0000E+00  0.4000E+01
 -12.490  0.0000E+00  0.4000E+01
 -12.480  0.0000E+00  0.4000E+01
 -12.470  0.0000E+00  0.4000E+01
 -12.460  0.0000E+00  0.4000E+01
 -12.450  0.0000E+00  0.4000E+01
 -12.440  0.0000E+00  0.4000E+01
 -12.430  0.0000E+00  0.4000E+01
 -12.420  0.0000E+00  0.4000E+01
 -12.410  0.0000E+00  0.4000E+01
 -12.400  0.0000E+00  0.4000E+01
 -12.390  0.0000E+00  0.4000E+01
 -12.380  0.0000E+00  0.4000E+01
 -12.370  0.0000E+00  0.4000E+01
 -12.360  0.0000E+00  0.4000E+01
 -12.350  0.0000E+00  0.4000E+01
 -12.340  0.0000E+00  0.4000E+01
 -12.330  0.0000E+00  0.4000E+01
 -12.320  0.0000E+00  0.4000E+01
 -12.310  0.0000E+00  0.4000E+01
 -12.300  0.0000E+00  0.4000E+01
 -12.290  0.0000E+00  0.4000E+01
 -12.280  0.0000E+00  0.4000E+01
 -12.270  0.0000E+00  0.4000E+01
 -12.260  0.0000E+00  0.4000E+01
 -12.250  0.0000E+00  0.4000E+01
 -12.240  0.0000E+00  0.4000E+01
 -12.230  0.0000E+00  0.4000E+01
 -12.220  0.0000E+00  0.4000E+01
 -12.210  0.0000E+00  0.4000E+01
 -12.200  0.0000E+00  0.4000E+01
 -12.190  0.0000E+00  0.4000E+01
 -12.180  0.0000E+00  0.4000E+01
 -12.170  0.0000E+00  0.4000E+01
 -12.160  0.0000E+00  0.4000E+01
 -12.150  0.0000E+00  0.4000E+01
 -12.140  0.0000E+00  0.4000E+01
 -12.130  0.0000E+00  0.4000E+01
 -12.120  0.0000E+00  0.4000E+01
 -12.110  0.0000E+00  0.4000E+01
 -12.100  0.0000E+00  0.4000E+01
 -12.090  0.0000E+00  0.4000E+01
 -12.080  0.0000E+00  0.4000E+01
 -12.070  0.0000E+00  0.4000E+01
 -12.060  0.0000E+00  0.4000E+01
 -12.050  0.0000E+00  0.4000E+01
 -12.040  0.0000E+00  0.4000E+01
 -12.030  0.0000E+00  0.4000E+01
 -12.020  0.0000E+00  0.4000E+01
 -12.010  0.0000E+00  0.4000E+01
 -12.000  0.0000E+00  0.4000E+01
 -11.990  0.0000E+00  0.4000E+01
 -11.980  0.0000E+00  0.4000E+01
 -11.970  0.0000E+00  0.4000E+01
 -11.960  0.0000E+00  0.4000E+01
 -11.950  0.0000E+00  0.4000E+01
 -11.940  0.0000E+00  0.4000E+01
 -11.930  0.0000E+00  0.4000E+01
 -11.920  0.0000E+00  0.4000E+01
 -11.910  0.0000E+00  0.4000E+01
 -11.900  0.0000E+00  0.4000E+01
 -11.890  0.0000E+00  0.4000E+01
 -11.880  0.0000E+00  0.4000E+01
 -11.870  0.0000E+00  0.4000E+01
 -11.860  0.0000E+00  0.4000E+01
 -11.850  0.0000E+00  0.4000E+01
 -11.840  0.0000E+00  0.4000E+01
 -11.830  0.0000E+00  0.4000E+01
 -11.820  0.0000E+00  0.4000E+01
 -11.810  0.0000E+00  0.4000E+01
 -11.800  0.0000E+00  0.4000E+01
 -11.790  0.0000E+00  0.4000E+01
 -11.780  0.0000E+00  0.4000E+01
 -11.770  0.0000E+00  0.4000E+01
 -11.760  0.0000E+00  0.4000E+01
 -11.750  0.0000E+00  0.4000E+01
 -11.740  0.0000E+00  0.4000E+01
 -11.730  0.0000E+00  0.4000E+01
 -11.720  0.0000E+00  0.4000E+01
 -11.710  0.0000E+00  0.4000E+01
 -11.700  0.0000E+00  0.4000E+01
 -11.690  0.0000E+00  0.4000E+01
 -11.680  0.0000E+00  0.4000E+01
 -11.670  0.0000E+00  0.4000E+01
 -11.660  0.0000E+00  0.4000E+01
 -11.650  0.0000E+00  0.4000E+01
 -11.640  0.0000E+00  0.4000E+01
 -11.630  0.0000E+00  0.4000E+01
 -11.620  0.0000E+00  0.4000E+01
 -11.610  0.0000E+00  0.4000E+01
 -11.600  0.0000E+00  0.4000E+01
 -11.590  0.0000E+00  0.4000E+01
 -11.580  0.0000E+00  0.4000E+01
 -11.570  0.0000E+00  0.4000E+01
 -11.560  0.0000E+00  0.4000E+01
 -11.550  0.0000E+00  0.4000E+01
 -11.540  0.0000E+00  0.4000E+01
 -11.530  0.0000E+00  0.4000E+01
 -11.520  0.0000E+00  0.4000E+01
 -11.510  0.0000E+00  0.4000E+01
 -11.500  0.0000E+00  0.4000E+01
 -11.490  0.0000E+00  0.4000E+01
 -11.480  0.0000E+00  0.4000E+01
 -11.470  0.0000E+00  0.4000E+01
 -11.460  0.0000E+00  0.4000E+01
 -11.450  0.0000E+00  0.4000E+01
 -11.440  0.0000E+00  0.4000E+01
 -11.430  0.0000E+00  0.4000E+01
 -11.420  0.0000E+00  0.4000E+01
 -11.410  0.0000E+00  0.4000E+01
 -11.400  0.0000E+00  0.4000E+01
 -11.390  0.0000E+00  0.4000E+01
 -11.380  0.0000E+00  0.4000E+01
 -11.370  0.0000E+00  0.4000E+01
 -11.360  0.0000E+00  0.4000E+01
 -11.350  0.0000E+00  0.4000E+01
 -11.340  0.0000E+00  0.4000E+01
 -11.330  0.0000E+00  0.4000E+01
 -11.320  0.0000E+00  0.4000E+01
 -11.310  0.0000E+00  0.4000E+01
 -11.300  0.0000E+00  0.4000E+01
 -11.290  0.0000E+00  0.4000E+01
 -11.280  0.0000E+00  0.4000E+01
 -11.270  0.0000E+00  0.4000E+01
 -11.260  0.0000E+00  0.4000E+01
 -11.250  0.0000E+00  0.4000E+01
 -11.240  0.0000E+00  0.4000E+01
 -11.230  0.0000E+00  0.4000E+01
 -11.220  0.0000E+00  0.4000E+01
 -11.210  0.0000E+00  0.4000E+01
 -11.200  0.0000E+00  0.4000E+01
 -11.190  0.0000E+00  0.4000E+01
 -11.180  0.0000E+00  0.4000E+01
 -11.170  0.0000E+00  0.4000E+01
 -11.160  0.0000E+00  0.4000E+01
 -11.150  0.0000E+00  0.4000E+01
 -11.140  0.0000E+00  0.4000E+01
 -11.130  0.0000E+00  0.4000E+01
 -11.120  0.0000E+00  0.4000E+01
 -11.110  0.0000E+00  0.4000E+01
 -11.100  0.0000E+00  0.4000E+01
 -11.090  0.0000E+00  0.4000E+01
 -11.080  0.0000E+00  0.4000E+01
 -11.070  0.0000E+00  0.4000E+01
 -11.060  0.0000E+00  0.4000E+01
 -11.050  0.0000E+00  0.4000E+01
 -11.040  0.0000E+00  0.4000E+01
 -11.030  0.0000E+00  0.4000E+01
 -11.020  0.0000E+00  0.4000E+01
 -11.010  0.0000E+00  0.4000E+01
 -11.000  0.0000E+00  0.4000E+01
 -10.990  0.0000E+00  0.4000E+01
 -10.980  0.0000E+00  0.4000E+01
 -10.970  0.0000E+00  0.4000E+01
 -10.960  0.0000E+00  0.4000E+01
 -10.950  0.0000E+00  0.4000E+01
 -10.940  0.0000E+00  0.4000E+01
 -10.930  0.0000E+00  0.4000E+01
 -10.920  0.0000E+00  0.4000E+01
 -10.910  0.0000E+00  0.4000E+01
 -10.900  0.0000E+00  0.4000E+01
 -10.890  0.0000E+00  0.4000E+01
 -10.880  0.0000E+00  0.4000E+01
 -10.870  0.0000E+00  0.4000E+01
 -10.860  0.0000E+00  0.4000E+01
 -10.850  0.0000E+00  0.4000E+01
 -10.840  0.0000E+00  0.4000E+01
 -10.830  0.0000E+00  0.4000E+01
 -10.820  0.0000E+00  0.4000E+01
 -10.810  0.0000E+00  0.4000E+01
 -10.800  0.0000E+00  0.4000E+01
 -10.790  0.0000E+00  0.4000E+01
 -10.780  0.0000E+00  0.4000E+01
 -10.770  0.0000E+00  0.4000E+01
 -10.760  0.0000E+00  0.4000E+01
 -10.750  0.0000E+00  0.4000E+01
 -10.740  0.0000E+00  0.4000E+01
 -10.730  0.0000E+00  0.4000E+01
 -10.720  0.0000E+00  0.4000E+01
 -10.710  0.0000E+00  0.4000E+01
 -10.700  0.0000E+00  0.4000E+01
 -10.690  0.0000E+00  0.4000E+01
 -10.680  0.0000E+00  0.4000E+01
 -10.670  0.0000E+00  0.4000E+01
 -10.660  0.0000E+00  0.4000E+01
 -10.650  0.0000E+00  0.4000E+01
 -10.640  0.0000E+00  0.4000E+01
 -10.630  0.0000E+00  0.4000E+01
 -10.620  0.0000E+00  0.4000E+01
 -10.610  0.0000E+00  0.4000E+01
 -10.600  0.0000E+00  0.4000E+01
 -10.590  0.0000E+00  0.4000E+01
 -10.580  0.0000E+00  0.4000E+01
 -10.570  0.0000E+00  0.4000E+01
 -10.560  0.0000E+00  0.4000E+01
 -10.550  0.0000E+00  0.4000E+01
 -10.540  0.0000E+00  0.4000E+01
 -10.530  0.0000E+00  0.4000E+01
 -10.520  0.0000E+00  0.4000E+01
 -10.510  0.0000E+00  0.4000E+01
 -10.500  0.0000E+00  0.4000E+01
 -10.490  0.0000E+00  0.4000E+01
 -10.480  0.0000E+00  0.4000E+01
 -10.470  0.0000E+00  0.4000E+01
 -10.460  0.0000E+00  0.4000E+01
 -10.450  0.0000E+00  0.4000E+01
 -10.440  0.0000E+00  0.4000E+01
 -10.430  0.0000E+00  0.4000E+01
 -10.420  0.0000E+00  0.4000E+01
 -10.410  0.0000E+00  0.4000E+01
 -10.400  0.0000E+00  0.4000E+01
 -10.390  0.0000E+00  0.4000E+01
 -10.380  0.0000E+00  0.4000E+01
 -10.370  0.0000E+00  0.4000E+01
 -10.360  0.0000E+00  0.4000E+01
 -10.350  0.0000E+00  0.4000E+01
 -10.340  0.0000E+00  0.4000E+01
 -10.330  0.0000E+00  0.4000E+01
 -10.320  0.0000E+00  0.4000E+01
 -10.310  0.0000E+00  0.4000E+01
 -10.300  0.0000E+00  0.4000E+01
 -10.290  0.0000E+00  0.4000E+01
 -10.280  0.0000E+00  0.4000E+01
 -10.270  0.0000E+00  0.4000E+01
 -10.260  0.0000E+00  0.4000E+01
 -10.250  0.0000E+00  0.4000E+01
 -10.240  0.0000E+00  0.4000E+01
 -10.230  0.0000E+00  0.4000E+01
 -10.220  0.0000E+00  0.4000E+01
 -10.210  0.0000E+00  0.4000E+01
 -10.200  0.0000E+00  0.4000E+01
 -10.190  0.0000E+00  0.4000E+01
 -10.180  0.0000E+00  0.4000E+01
 -10.170  0.0000E+00  0.4000E+01
 -10.160  0.0000E+00  0.4000E+01
 -10.150  0.0000E+00  0.4000E+01
 -10.140  0.0000E+00  0.4000E+01
 -10.130  0.2826E+00  0.4000E+01
 -10.120  0.1081E+01  0.4010E+01
 -10.110  0.1285E+01  0.4022E+01
 -10.100  0.1179E+01  0.4034E+01
 -10.090  0.1135E+01  0.4045E+01
 -10.080  0.1231E+01  0.4057E+01
 -10.070  0.1213E+01  0.4069E+01
 -10.060  0.1135E+01  0.4081E+01
 -10.050  0.1205E+01  0.4092E+01
 -10.040  0.1252E+01  0.4105E+01
 -10.030  0.1201E+01  0.4117E+01
 -10.020  0.1173E+01  0.4129E+01
 -10.010  0.1206E+01  0.4141E+01
 -10.000  0.1265E+01  0.4153E+01
  -9.990  0.1256E+01  0.4166E+01
  -9.980  0.1225E+01  0.4178E+01
  -9.970  0.1224E+01  0.4190E+01
  -9.960  0.1234E+01  0.4203E+01
  -9.950  0.1279E+01  0.4215E+01
  -9.940  0.1303E+01  0.4228E+01
  -9.930  0.1265E+01  0.4241E+01
  -9.920  0.1272E+01  0.4254E+01
  -9.910  0.1278E+01  0.4267E+01
  -9.900  0.1288E+01  0.4279E+01
  -9.890  0.1326E+01  0.4292E+01
  -9.880  0.1340E+01  0.4306E+01
  -9.870  0.1336E+01  0.4319E+01
  -9.860  0.1748E+01  0.4333E+01
  -9.850  0.2409E+01  0.4358E+01
  -9.840  0.2601E+01  0.4383E+01
  -9.830  0.2615E+01  0.4408E+01
  -9.820  0.2524E+01  0.4433E+01
  -9.810  0.2616E+01  0.4459E+01
  -9.800  0.2550E+01  0.4485E+01
  -9.790  0.2532E+01  0.4511E+01
  -9.780  0.2637E+01  0.4536E+01
  -9.770  0.2681E+01  0.4563E+01
  -9.760  0.2629E+01  0.4590E+01
  -9.750  0.2648E+01  0.4616E+01
  -9.740  0.2723E+01  0.4643E+01
  -9.730  0.2744E+01  0.4670E+01
  -9.720  0.2765E+01  0.4698E+01
  -9.710  0.2761E+01  0.4725E+01
  -9.700  0.2770E+01  0.4753E+01
  -9.690  0.2840E+01  0.4781E+01
  -9.680  0.2871E+01  0.4809E+01
  -9.670  0.2914E+01  0.4838E+01
  -9.660  0.2965E+01  0.4868E+01
  -9.650  0.2954E+01  0.4897E+01
  -9.640  0.3022E+01  0.4927E+01
  -9.630  0.3063E+01  0.4958E+01
  -9.620  0.3101E+01  0.4989E+01
  -9.610  0.3199E+01  0.5020E+01
  -9.600  0.3291E+01  0.5052E+01
  -9.590  0.3368E+01  0.5086E+01
  -9.580  0.3502E+01  0.5120E+01
  -9.570  0.3559E+01  0.5155E+01
  -9.560  0.3852E+01  0.5192E+01
  -9.550  0.4345E+01  0.5233E+01
  -9.540  0.4708E+01  0.5280E+01
  -9.530  0.3966E+01  0.5321E+01
  -9.520  0.3621E+01  0.5359E+01
  -9.510  0.3499E+01  0.5395E+01
  -9.500  0.3330E+01  0.5429E+01
  -9.490  0.3252E+01  0.5462E+01
  -9.480  0.3187E+01  0.5494E+01
  -9.470  0.3119E+01  0.5525E+01
  -9.460  0.3067E+01  0.5556E+01
  -9.450  0.3075E+01  0.5587E+01
  -9.440  0.3019E+01  0.5618E+01
  -9.430  0.2954E+01  0.5647E+01
  -9.420  0.2945E+01  0.5677E+01
  -9.410  0.2947E+01  0.5706E+01
  -9.400  0.2921E+01  0.5736E+01
  -9.390  0.2922E+01  0.5765E+01
  -9.380  0.2934E+01  0.5794E+01
  -9.370  0.2928E+01  0.5823E+01
  -9.360  0.2922E+01  0.5853E+01
  -9.350  0.2950E+01  0.5882E+01
  -9.340  0.3462E+01  0.5915E+01
  -9.330  0.3511E+01  0.5951E+01
  -9.320  0.3706E+01  0.5987E+01
  -9.310  0.3704E+01  0.6025E+01
  -9.300  0.3882E+01  0.6062E+01
  -9.290  0.4054E+01  0.6102E+01
  -9.280  0.4480E+01  0.6149E+01
  -9.270  0.4023E+01  0.6193E+01
  -9.260  0.3802E+01  0.6232E+01
  -9.250  0.3537E+01  0.6269E+01
  -9.240  0.3392E+01  0.6303E+01
  -9.230  0.3352E+01  0.6337E+01
  -9.220  0.3252E+01  0.6370E+01
  -9.210  0.3103E+01  0.6402E+01
  -9.200  0.3067E+01  0.6433E+01
  -9.190  0.3024E+01  0.6463E+01
  -9.180  0.2950E+01  0.6493E+01
  -9.170  0.2897E+01  0.6523E+01
  -9.160  0.2891E+01  0.6552E+01
  -9.150  0.2881E+01  0.6580E+01
  -9.140  0.2850E+01  0.6609E+01
  -9.130  0.2719E+01  0.6637E+01
  -9.120  0.2731E+01  0.6664E+01
  -9.110  0.2762E+01  0.6692E+01
  -9.100  0.2772E+01  0.6720E+01
  -9.090  0.2775E+01  0.6747E+01
  -9.080  0.2789E+01  0.6775E+01
  -9.070  0.2837E+01  0.6803E+01
  -9.060  0.2866E+01  0.6832E+01
  -9.050  0.2923E+01  0.6861E+01
  -9.040  0.2999E+01  0.6890E+01
  -9.030  0.3243E+01  0.6921E+01
  -9.020  0.3379E+01  0.6954E+01
  -9.010  0.3500E+01  0.6989E+01
  -9.000  0.4003E+01  0.7026E+01
  -8.990  0.4649E+01  0.7069E+01
  -8.980  0.6483E+01  0.7127E+01
  -8.970  0.5149E+01  0.7189E+01
  -8.960  0.3634E+01  0.7230E+01
  -8.950  0.6430E+00  0.7240E+01
  -8.940  0.6351E+00  0.7247E+01
  -8.930  0.7342E+00  0.7253E+01
  -8.920  0.7251E+00  0.7261E+01
  -8.910  0.7229E+00  0.7268E+01
  -8.900  0.7187E+00  0.7275E+01
  -8.890  0.7190E+00  0.7282E+01
  -8.880  0.7214E+00  0.7289E+01
  -8.870  0.7239E+00  0.7297E+01
  -8.860  0.7263E+00  0.7304E+01
  -8.850  0.7287E+00  0.7311E+01
  -8.840  0.6813E+00  0.7318E+01
  -8.830  0.6797E+00  0.7325E+01
  -8.820  0.6809E+00  0.7332E+01
  -8.810  0.6822E+00  0.7339E+01
  -8.800  0.6846E+00  0.7345E+01
  -8.790  0.7509E+00  0.7353E+01
  -8.780  0.7542E+00  0.7360E+01
  -8.770  0.7574E+00  0.7368E+01
  -8.760  0.7606E+00  0.7375E+01
  -8.750  0.7628E+00  0.7383E+01
  -8.740  0.7804E+00  0.7391E+01
  -8.730  0.7749E+00  0.7398E+01
  -8.720  0.7696E+00  0.7406E+01
  -8.710  0.7725E+00  0.7414E+01
  -8.700  0.7852E+00  0.7421E+01
  -8.690  0.8058E+00  0.7429E+01
  -8.680  0.8272E+00  0.7438E+01
  -8.670  0.7921E+00  0.7446E+01
  -8.660  0.8017E+00  0.7454E+01
  -8.650  0.8107E+00  0.7462E+01
  -8.640  0.8216E+00  0.7470E+01
  -8.630  0.8325E+00  0.7478E+01
  -8.620  0.8394E+00  0.7487E+01
  -8.610  0.8390E+00  0.7495E+01
  -8.600  0.8517E+00  0.7503E+01
  -8.590  0.8564E+00  0.7512E+01
  -8.580  0.8729E+00  0.7521E+01
  -8.570  0.8747E+00  0.7529E+01
  -8.560  0.8667E+00  0.7538E+01
  -8.550  0.8633E+00  0.7547E+01
  -8.540  0.8642E+00  0.7555E+01
  -8.530  0.8776E+00  0.7564E+01
  -8.520  0.8910E+00  0.7573E+01
  -8.510  0.9044E+00  0.7582E+01
  -8.500  0.9173E+00  0.7591E+01
  -8.490  0.9216E+00  0.7600E+01
  -8.480  0.9259E+00  0.7609E+01
  -8.470  0.9263E+00  0.7619E+01
  -8.460  0.9333E+00  0.7628E+01
  -8.450  0.9381E+00  0.7637E+01
  -8.440  0.9430E+00  0.7647E+01
  -8.430  0.9449E+00  0.7656E+01
  -8.420  0.9475E+00  0.7666E+01
  -8.410  0.9502E+00  0.7675E+01
  -8.400  0.9514E+00  0.7685E+01
  -8.390  0.9675E+00  0.7694E+01
  -8.380  0.9849E+00  0.7704E+01
  -8.370  0.9934E+00  0.7714E+01
  -8.360  0.1002E+01  0.7724E+01
  -8.350  0.1009E+01  0.7734E+01
  -8.340  0.1008E+01  0.7744E+01
  -8.330  0.1006E+01  0.7754E+01
  -8.320  0.1005E+01  0.7764E+01
  -8.310  0.1017E+01  0.7774E+01
  -8.300  0.1028E+01  0.7784E+01
  -8.290  0.1036E+01  0.7795E+01
  -8.280  0.1042E+01  0.7805E+01
  -8.270  0.1048E+01  0.7816E+01
  -8.260  0.1054E+01  0.7826E+01
  -8.250  0.1061E+01  0.7837E+01
  -8.240  0.1070E+01  0.7847E+01
  -8.230  0.1081E+01  0.7858E+01
  -8.220  0.1086E+01  0.7869E+01
  -8.210  0.1091E+01  0.7880E+01
  -8.200  0.1096E+01  0.7891E+01
  -8.190  0.1101E+01  0.7902E+01
  -8.180  0.1105E+01  0.7913E+01
  -8.170  0.1110E+01  0.7924E+01
  -8.160  0.1122E+01  0.7935E+01
  -8.150  0.1135E+01  0.7946E+01
  -8.140  0.1146E+01  0.7958E+01
  -8.130  0.1158E+01  0.7969E+01
  -8.120  0.1155E+01  0.7981E+01
  -8.110  0.1153E+01  0.7992E+01
  -8.100  0.1165E+01  0.8004E+01
  -8.090  0.1169E+01  0.8016E+01
  -8.080  0.1184E+01  0.8027E+01
  -8.070  0.1192E+01  0.8039E+01
  -8.060  0.1199E+01  0.8051E+01
  -8.050  0.1207E+01  0.8063E+01
  -8.040  0.1214E+01  0.8075E+01
  -8.030  0.1226E+01  0.8087E+01
  -8.020  0.1236E+01  0.8100E+01
  -8.010  0.1251E+01  0.8112E+01
  -8.000  0.1251E+01  0.8125E+01
  -7.990  0.1254E+01  0.8137E+01
  -7.980  0.1258E+01  0.8150E+01
  -7.970  0.1262E+01  0.8162E+01
  -7.960  0.1275E+01  0.8175E+01
  -7.950  0.1287E+01  0.8188E+01
  -7.940  0.1295E+01  0.8201E+01
  -7.930  0.1310E+01  0.8214E+01
  -7.920  0.1324E+01  0.8227E+01
  -7.910  0.1335E+01  0.8240E+01
  -7.900  0.1344E+01  0.8254E+01
  -7.890  0.1354E+01  0.8267E+01
  -7.880  0.1357E+01  0.8281E+01
  -7.870  0.1360E+01  0.8294E+01
  -7.860  0.1366E+01  0.8308E+01
  -7.850  0.1380E+01  0.8322E+01
  -7.840  0.1389E+01  0.8336E+01
  -7.830  0.1397E+01  0.8349E+01
  -7.820  0.1412E+01  0.8363E+01
  -7.810  0.1428E+01  0.8378E+01
  -7.800  0.1441E+01  0.8392E+01
  -7.790  0.1457E+01  0.8407E+01
  -7.780  0.1467E+01  0.8421E+01
  -7.770  0.1477E+01  0.8436E+01
  -7.760  0.1480E+01  0.8451E+01
  -7.750  0.1494E+01  0.8466E+01
  -7.740  0.3008E+01  0.8484E+01
  -7.730  0.3615E+01  0.8520E+01
  -7.720  0.3851E+01  0.8559E+01
  -7.710  0.4106E+01  0.8600E+01
  -7.700  0.4299E+01  0.8642E+01
  -7.690  0.5437E+01  0.8690E+01
  -7.680  0.4966E+01  0.8744E+01
  -7.670  0.3952E+01  0.8787E+01
  -7.660  0.3798E+01  0.8826E+01
  -7.650  0.3672E+01  0.8863E+01
  -7.640  0.3586E+01  0.8899E+01
  -7.630  0.3504E+01  0.8935E+01
  -7.620  0.3342E+01  0.8969E+01
  -7.610  0.3302E+01  0.9002E+01
  -7.600  0.3275E+01  0.9035E+01
  -7.590  0.3257E+01  0.9068E+01
  -7.580  0.3243E+01  0.9100E+01
  -7.570  0.3239E+01  0.9133E+01
  -7.560  0.3222E+01  0.9165E+01
  -7.550  0.3166E+01  0.9197E+01
  -7.540  0.3164E+01  0.9228E+01
  -7.530  0.3165E+01  0.9260E+01
  -7.520  0.3167E+01  0.9292E+01
  -7.510  0.3176E+01  0.9323E+01
  -7.500  0.3195E+01  0.9355E+01
  -7.490  0.3212E+01  0.9387E+01
  -7.480  0.3236E+01  0.9420E+01
  -7.470  0.3268E+01  0.9452E+01
  -7.460  0.3313E+01  0.9485E+01
  -7.450  0.3366E+01  0.9518E+01
  -7.440  0.3441E+01  0.9552E+01
  -7.430  0.3552E+01  0.9587E+01
  -7.420  0.3627E+01  0.9623E+01
  -7.410  0.3669E+01  0.9660E+01
  -7.400  0.3707E+01  0.9697E+01
  -7.390  0.4083E+01  0.9735E+01
  -7.380  0.3273E+01  0.9770E+01
  -7.370  0.3177E+01  0.9803E+01
  -7.360  0.3103E+01  0.9834E+01
  -7.350  0.3051E+01  0.9864E+01
  -7.340  0.3112E+01  0.9895E+01
  -7.330  0.3185E+01  0.9927E+01
  -7.320  0.3162E+01  0.9959E+01
  -7.310  0.2966E+01  0.9989E+01
  -7.300  0.2965E+01  0.1002E+02
  -7.290  0.2974E+01  0.1005E+02
  -7.280  0.2979E+01  0.1008E+02
  -7.270  0.3822E+01  0.1011E+02
  -7.260  0.3665E+01  0.1015E+02
  -7.250  0.3609E+01  0.1018E+02
  -7.240  0.3974E+01  0.1022E+02
  -7.230  0.4673E+01  0.1026E+02
  -7.220  0.4759E+01  0.1031E+02
  -7.210  0.4786E+01  0.1036E+02
  -7.200  0.4999E+01  0.1041E+02
  -7.190  0.5234E+01  0.1046E+02
  -7.180  0.5559E+01  0.1051E+02
  -7.170  0.6517E+01  0.1057E+02
  -7.160  0.3769E+01  0.1064E+02
  -7.150  0.3888E+01  0.1068E+02
  -7.140  0.4000E+01  0.1072E+02
  -7.130  0.4102E+01  0.1076E+02
  -7.120  0.4472E+01  0.1080E+02
  -7.110  0.4229E+01  0.1084E+02
  -7.100  0.4441E+01  0.1089E+02
  -7.090  0.4716E+01  0.1093E+02
  -7.080  0.4862E+01  0.1098E+02
  -7.070  0.5261E+01  0.1103E+02
  -7.060  0.5422E+01  0.1108E+02
  -7.050  0.6018E+01  0.1114E+02
  -7.040  0.5714E+01  0.1120E+02
  -7.030  0.5767E+01  0.1126E+02
  -7.020  0.5717E+01  0.1132E+02
  -7.010  0.5811E+01  0.1137E+02
  -7.000  0.5420E+01  0.1143E+02
  -6.990  0.5647E+01  0.1149E+02
  -6.980  0.8775E+01  0.1155E+02
  -6.970  0.7269E+01  0.1163E+02
  -6.960  0.6628E+01  0.1171E+02
  -6.950  0.6901E+01  0.1177E+02
  -6.940  0.6415E+01  0.1184E+02
  -6.930  0.6059E+01  0.1190E+02
  -6.920  0.6032E+01  0.1196E+02
  -6.910  0.5821E+01  0.1202E+02
  -6.900  0.5662E+01  0.1208E+02
  -6.890  0.5607E+01  0.1214E+02
  -6.880  0.5620E+01  0.1219E+02
  -6.870  0.5539E+01  0.1225E+02
  -6.860  0.5506E+01  0.1230E+02
  -6.850  0.5764E+01  0.1236E+02
  -6.840  0.5638E+01  0.1242E+02
  -6.830  0.5688E+01  0.1247E+02
  -6.820  0.6082E+01  0.1253E+02
  -6.810  0.6018E+01  0.1259E+02
  -6.800  0.5475E+01  0.1265E+02
  -6.790  0.5241E+01  0.1271E+02
  -6.780  0.5147E+01  0.1276E+02
  -6.770  0.5059E+01  0.1281E+02
  -6.760  0.4868E+01  0.1286E+02
  -6.750  0.4567E+01  0.1291E+02
  -6.740  0.4504E+01  0.1295E+02
  -6.730  0.5221E+01  0.1300E+02
  -6.720  0.6130E+01  0.1305E+02
  -6.710  0.5969E+01  0.1312E+02
  -6.700  0.5872E+01  0.1318E+02
  -6.690  0.6158E+01  0.1324E+02
  -6.680  0.6215E+01  0.1330E+02
  -6.670  0.6205E+01  0.1336E+02
  -6.660  0.5848E+01  0.1343E+02
  -6.650  0.5644E+01  0.1348E+02
  -6.640  0.5445E+01  0.1354E+02
  -6.630  0.5347E+01  0.1359E+02
  -6.620  0.5215E+01  0.1364E+02
  -6.610  0.5237E+01  0.1370E+02
  -6.600  0.5301E+01  0.1375E+02
  -6.590  0.5122E+01  0.1380E+02
  -6.580  0.5085E+01  0.1385E+02
  -6.570  0.5072E+01  0.1390E+02
  -6.560  0.5044E+01  0.1395E+02
  -6.550  0.5005E+01  0.1400E+02
  -6.540  0.4958E+01  0.1405E+02
  -6.530  0.4918E+01  0.1410E+02
  -6.520  0.4981E+01  0.1415E+02
  -6.510  0.4863E+01  0.1420E+02
  -6.500  0.4864E+01  0.1425E+02
  -6.490  0.4922E+01  0.1430E+02
  -6.480  0.4829E+01  0.1435E+02
  -6.470  0.4798E+01  0.1439E+02
  -6.460  0.4800E+01  0.1444E+02
  -6.450  0.4791E+01  0.1449E+02
  -6.440  0.4886E+01  0.1454E+02
  -6.430  0.4688E+01  0.1459E+02
  -6.420  0.4957E+01  0.1463E+02
  -6.410  0.4704E+01  0.1468E+02
  -6.400  0.4567E+01  0.1473E+02
  -6.390  0.4105E+01  0.1478E+02
  -6.380  0.2556E+01  0.1481E+02
  -6.370  0.2122E+01  0.1484E+02
  -6.360  0.1506E+01  0.1486E+02
  -6.350  0.1539E+01  0.1487E+02
  -6.340  0.1565E+01  0.1489E+02
  -6.330  0.1591E+01  0.1490E+02
  -6.320  0.1627E+01  0.1492E+02
  -6.310  0.1660E+01  0.1493E+02
  -6.300  0.1688E+01  0.1495E+02
  -6.290  0.1732E+01  0.1497E+02
  -6.280  0.1767E+01  0.1499E+02
  -6.270  0.1806E+01  0.1500E+02
  -6.260  0.1860E+01  0.1502E+02
  -6.250  0.1903E+01  0.1504E+02
  -6.240  0.1951E+01  0.1506E+02
  -6.230  0.2008E+01  0.1508E+02
  -6.220  0.2068E+01  0.1510E+02
  -6.210  0.2145E+01  0.1512E+02
  -6.200  0.2210E+01  0.1514E+02
  -6.190  0.2293E+01  0.1517E+02
  -6.180  0.2369E+01  0.1519E+02
  -6.170  0.2488E+01  0.1521E+02
  -6.160  0.2601E+01  0.1524E+02
  -6.150  0.2730E+01  0.1526E+02
  -6.140  0.2860E+01  0.1529E+02
  -6.130  0.3067E+01  0.1532E+02
  -6.120  0.3287E+01  0.1535E+02
  -6.110  0.3575E+01  0.1539E+02
  -6.100  0.3976E+01  0.1543E+02
  -6.090  0.4678E+01  0.1547E+02
  -6.080  0.1297E+02  0.1553E+02
  -6.070  0.4837E+01  0.1558E+02
  -6.060  0.4172E+01  0.1563E+02
  -6.050  0.3719E+01  0.1567E+02
  -6.040  0.3513E+01  0.1571E+02
  -6.030  0.3300E+01  0.1574E+02
  -6.020  0.3158E+01  0.1577E+02
  -6.010  0.3027E+01  0.1580E+02
  -6.000  0.2914E+01  0.1583E+02
  -5.990  0.2760E+01  0.1586E+02
  -5.980  0.2697E+01  0.1589E+02
  -5.970  0.2596E+01  0.1592E+02
  -5.960  0.2712E+01  0.1594E+02
  -5.950  0.2357E+01  0.1597E+02
  -5.940  0.2843E+01  0.1599E+02
  -5.930  0.0000E+00  0.1600E+02
  -5.920  0.0000E+00  0.1600E+02
  -5.910  0.0000E+00  0.1600E+02
  -5.900  0.0000E+00  0.1600E+02
  -5.890  0.0000E+00  0.1600E+02
  -5.880  0.0000E+00  0.1600E+02
  -5.870  0.0000E+00  0.1600E+02
  -5.860  0.0000E+00  0.1600E+02
  -5.850  0.0000E+00  0.1600E+02
  -5.840  0.0000E+00  0.1600E+02
  -5.830  0.0000E+00  0.1600E+02
  -5.820  0.0000E+00  0.1600E+02
  -5.810  0.0000E+00  0.1600E+02
  -5.800  0.0000E+00  0.1600E+02
  -5.790  0.0000E+00  0.1600E+02
  -5.780  0.0000E+00  0.1600E+02
  -5.770  0.0000E+00  0.1600E+02
  -5.760  0.0000E+00  0.1600E+02
  -5.750  0.0000E+00  0.1600E+02
  -5.740  0.0000E+00  0.1600E+02
  -5.730  0.0000E+00  0.1600E+02
  -5.720  0.0000E+00  0.1600E+02
  -5.710  0.0000E+00  0.1600E+02
  -5.700  0.0000E+00  0.1600E+02
  -5.690  0.0000E+00  0.1600E+02
  -5.680  0.0000E+00  0.1600E+02
  -5.670  0.0000E+00  0.1600E+02
  -5.660  0.0000E+00  0.1600E+02
  -5.650  0.0000E+00  0.1600E+02
  -5.640  0.0000E+00  0.1600E+02
  -5.630  0.0000E+00  0.1600E+02
  -5.620  0.0000E+00  0.1600E+02
  -5.610  0.0000E+00  0.1600E+02
  -5.600  0.0000E+00  0.1600E+02
  -5.590  0.0000E+00  0.1600E+02
  -5.580  0.0000E+00  0.1600E+02
  -5.570  0.0000E+00  0.1600E+02
  -5.560  0.0000E+00  0.1600E+02
  -5.550  0.0000E+00  0.1600E+02
  -5.540  0.0000E+00  0.1600E+02
  -5.530  0.0000E+00  0.1600E+02
  -5.520  0.0000E+00  0.1600E+02
  -5.510  0.0000E+00  0.1600E+02
  -5.500  0.0000E+00  0.1600E+02
  -5.490  0.0000E+00  0.1600E+02
  -5.480  0.0000E+00  0.1600E+02
  -5.470  0.0000E+00  0.1600E+02
  -5.460  0.0000E+00  0.1600E+02
  -5.450  0.0000E+00  0.1600E+02
  -5.440  0.0000E+00  0.1600E+02
  -5.430  0.0000E+00  0.1600E+02
  -5.420  0.0000E+00  0.1600E+02
  -5.410  0.0000E+00  0.1600E+02
  -5.400  0.0000E+00  0.1600E+02
  -5.390  0.0000E+00  0.1600E+02
  -5.380  0.0000E+00  0.1600E+02
  -5.370  0.0000E+00  0.1600E+02
  -5.360  0.0000E+00  0.1600E+02
  -5.350  0.0000E+00  0.1600E+02
  -5.340  0.0000E+00  0.1600E+02
  -5.330  0.0000E+00  0.1600E+02
  -5.320  0.0000E+00  0.1600E+02
  -5.310  0.0000E+00  0.1600E+02
  -5.300  0.0000E+00  0.1600E+02
  -5.290  0.0000E+00  0.1600E+02
  -5.280  0.0000E+00  0.1600E+02
  -5.270  0.0000E+00  0.1600E+02
  -5.260  0.0000E+00  0.1600E+02
  -5.250  0.0000E+00  0.1600E+02
  -5.240  0.0000E+00  0.1600E+02
  -5.230  0.0000E+00  0.1600E+02
  -5.220  0.0000E+00  0.1600E+02
  -5.210  0.0000E+00  0.1600E+02
  -5.200  0.0000E+00  0.1600E+02
  -5.190  0.0000E+00  0.1600E+02
  -5.180  0.0000E+00  0.1600E+02
  -5.170  0.0000E+00  0.1600E+02
  -5.160  0.0000E+00  0.1600E+02
  -5.150  0.0000E+00  0.1600E+02
  -5.140  0.0000E+00  0.1600E+02
  -5.130  0.0000E+00  0.1600E+02
  -5.120  0.0000E+00  0.1600E+02
  -5.110  0.0000E+00  0.1600E+02
  -5.100  0.0000E+00  0.1600E+02
  -5.090  0.0000E+00  0.1600E+02
  -5.080  0.0000E+00  0.1600E+02
  -5.070  0.0000E+00  0.1600E+02
  -5.060  0.0000E+00  0.1600E+02
  -5.050  0.0000E+00  0.1600E+02
  -5.040  0.0000E+00  0.1600E+02
  -5.030  0.0000E+00  0.1600E+02
  -5.020  0.0000E+00  0.1600E+02
  -5.010  0.0000E+00  0.1600E+02
  -5.000  0.0000E+00  0.1600E+02
  -4.990  0.0000E+00  0.1600E+02
  -4.980  0.0000E+00  0.1600E+02
  -4.970  0.0000E+00  0.1600E+02
  -4.960  0.0000E+00  0.1600E+02
  -4.950  0.0000E+00  0.1600E+02
  -4.940  0.0000E+00  0.1600E+02
  -4.930  0.0000E+00  0.1600E+02
  -4.920  0.0000E+00  0.1600E+02
  -4.910  0.0000E+00  0.1600E+02
  -4.900  0.0000E+00  0.1600E+02
  -4.890  0.0000E+00  0.1600E+02
  -4.880  0.0000E+00  0.1600E+02
  -4.870  0.0000E+00  0.1600E+02
  -4.860  0.0000E+00  0.1600E+02
  -4.850  0.0000E+00  0.1600E+02
  -4.840  0.0000E+00  0.1600E+02
  -4.830  0.0000E+00  0.1600E+02
  -4.820  0.0000E+00  0.1600E+02
  -4.810  0.0000E+00  0.1600E+02
  -4.800  0.0000E+00  0.1600E+02
  -4.790  0.0000E+00  0.1600E+02
  -4.780  0.0000E+00  0.1600E+02
  -4.770  0.0000E+00  0.1600E+02
  -4.760  0.0000E+00  0.1600E+02
  -4.750  0.0000E+00  0.1600E+02
  -4.740  0.0000E+00  0.1600E+02
  -4.730  0.0000E+00  0.1600E+02
  -4.720  0.0000E+00  0.1600E+02
  -4.710  0.0000E+00  0.1600E+02
  -4.700  0.0000E+00  0.1600E+02
  -4.690  0.0000E+00  0.1600E+02
  -4.680  0.0000E+00  0.1600E+02
  -4.670  0.0000E+00  0.1600E+02
  -4.660  0.0000E+00  0.1600E+02
  -4.650  0.0000E+00  0.1600E+02
  -4.640  0.0000E+00  0.1600E+02
  -4.630  0.0000E+00  0.1600E+02
  -4.620  0.0000E+00  0.1600E+02
  -4.610  0.0000E+00  0.1600E+02
  -4.600  0.0000E+00  0.1600E+02
  -4.590  0.0000E+00  0.1600E+02
  -4.580  0.0000E+00  0.1600E+02
  -4.570  0.0000E+00  0.1600E+02
  -4.560  0.0000E+00  0.1600E+02
  -4.550  0.0000E+00  0.1600E+02
  -4.540  0.0000E+00  0.1600E+02
  -4.530  0.0000E+00  0.1600E+02
  -4.520  0.0000E+00  0.1600E+02
  -4.510  0.0000E+00  0.1600E+02
  -4.500  0.0000E+00  0.1600E+02
  -4.490  0.0000E+00  0.1600E+02
  -4.480  0.0000E+00  0.1600E+02
  -4.470  0.0000E+00  0.1600E+02
  -4.460  0.0000E+00  0.1600E+02
  -4.450  0.0000E+00  0.1600E+02
  -4.440  0.0000E+00  0.1600E+02
  -4.430  0.0000E+00  0.1600E+02
  -4.420  0.0000E+00  0.1600E+02
  -4.410  0.0000E+00  0.1600E+02
  -4.400  0.0000E+00  0.1600E+02
  -4.390  0.0000E+00  0.1600E+02
  -4.380  0.0000E+00  0.1600E+02
  -4.370  0.0000E+00  0.1600E+02
  -4.360  0.0000E+00  0.1600E+02
  -4.350  0.0000E+00  0.1600E+02
  -4.340  0.0000E+00  0.1600E+02
  -4.330  0.0000E+00  0.1600E+02
  -4.320  0.0000E+00  0.1600E+02
  -4.310  0.0000E+00  0.1600E+02
  -4.300  0.0000E+00  0.1600E+02
  -4.290  0.0000E+00  0.1600E+02
  -4.280  0.0000E+00  0.1600E+02
  -4.270  0.0000E+00  0.1600E+02
  -4.260  0.0000E+00  0.1600E+02
  -4.250  0.2867E-01  0.1600E+02
  -4.240  0.2062E+00  0.1600E+02
  -4.230  0.2551E+00  0.1600E+02
  -4.220  0.3574E+00  0.1601E+02
  -4.210  0.2537E+00  0.1601E+02
  -4.200  0.2845E+00  0.1601E+02
  -4.190  0.3154E+00  0.1602E+02
  -4.180  0.3084E+00  0.1602E+02
  -4.170  0.2948E+00  0.1602E+02
  -4.160  0.3061E+00  0.1603E+02
  -4.150  0.3303E+00  0.1603E+02
  -4.140  0.3459E+00  0.1603E+02
  -4.130  0.3305E+00  0.1604E+02
  -4.120  0.3330E+00  0.1604E+02
  -4.110  0.3355E+00  0.1604E+02
  -4.100  0.3554E+00  0.1605E+02
  -4.090  0.3771E+00  0.1605E+02
  -4.080  0.3623E+00  0.1605E+02
  -4.070  0.3676E+00  0.1606E+02
  -4.060  0.3748E+00  0.1606E+02
  -4.050  0.3820E+00  0.1606E+02
  -4.040  0.3935E+00  0.1607E+02
  -4.030  0.4145E+00  0.1607E+02
  -4.020  0.4053E+00  0.1608E+02
  -4.010  0.4046E+00  0.1608E+02
  -4.000  0.4176E+00  0.1608E+02
  -3.990  0.4270E+00  0.1609E+02
  -3.980  0.4365E+00  0.1609E+02
  -3.970  0.4482E+00  0.1610E+02
  -3.960  0.4515E+00  0.1610E+02
  -3.950  0.4550E+00  0.1611E+02
  -3.940  0.4584E+00  0.1611E+02
  -3.930  0.4714E+00  0.1611E+02
  -3.920  0.4825E+00  0.1612E+02
  -3.910  0.4935E+00  0.1612E+02
  -3.900  0.4994E+00  0.1613E+02
  -3.890  0.5020E+00  0.1613E+02
  -3.880  0.5111E+00  0.1614E+02
  -3.870  0.5170E+00  0.1614E+02
  -3.860  0.5228E+00  0.1615E+02
  -3.850  0.5407E+00  0.1616E+02
  -3.840  0.5531E+00  0.1616E+02
  -3.830  0.5543E+00  0.1617E+02
  -3.820  0.5571E+00  0.1617E+02
  -3.810  0.5698E+00  0.1618E+02
  -3.800  0.5789E+00  0.1618E+02
  -3.790  0.5865E+00  0.1619E+02
  -3.780  0.6017E+00  0.1619E+02
  -3.770  0.6154E+00  0.1620E+02
  -3.760  0.6158E+00  0.1621E+02
  -3.750  0.6198E+00  0.1621E+02
  -3.740  0.6303E+00  0.1622E+02
  -3.730  0.6438E+00  0.1623E+02
  -3.720  0.6527E+00  0.1623E+02
  -3.710  0.6616E+00  0.1624E+02
  -3.700  0.6763E+00  0.1625E+02
  -3.690  0.6808E+00  0.1625E+02
  -3.680  0.6875E+00  0.1626E+02
  -3.670  0.6935E+00  0.1627E+02
  -3.660  0.7100E+00  0.1627E+02
  -3.650  0.7216E+00  0.1628E+02
  -3.640  0.7315E+00  0.1629E+02
  -3.630  0.7346E+00  0.1630E+02
  -3.620  0.7489E+00  0.1630E+02
  -3.610  0.7573E+00  0.1631E+02
  -3.600  0.7647E+00  0.1632E+02
  -3.590  0.7773E+00  0.1633E+02
  -3.580  0.7929E+00  0.1633E+02
  -3.570  0.8038E+00  0.1634E+02
  -3.560  0.8059E+00  0.1635E+02
  -3.550  0.8195E+00  0.1636E+02
  -3.540  0.8291E+00  0.1637E+02
  -3.530  0.8382E+00  0.1637E+02
  -3.520  0.8471E+00  0.1638E+02
  -3.510  0.8661E+00  0.1639E+02
  -3.500  0.8778E+00  0.1640E+02
  -3.490  0.8790E+00  0.1641E+02
  -3.480  0.8917E+00  0.1642E+02
  -3.470  0.9023E+00  0.1643E+02
  -3.460  0.9127E+00  0.1644E+02
  -3.450  0.9207E+00  0.1644E+02
  -3.440  0.9385E+00  0.1645E+02
  -3.430  0.9485E+00  0.1646E+02
  -3.420  0.9529E+00  0.1647E+02
  -3.410  0.9586E+00  0.1648E+02
  -3.400  0.9762E+00  0.1649E+02
  -3.390  0.9871E+00  0.1650E+02
  -3.380  0.9958E+00  0.1651E+02
  -3.370  0.1012E+01  0.1652E+02
  -3.360  0.1021E+01  0.1653E+02
  -3.350  0.1026E+01  0.1654E+02
  -3.340  0.1032E+01  0.1655E+02
  -3.330  0.1049E+01  0.1656E+02
  -3.320  0.1060E+01  0.1657E+02
  -3.310  0.1069E+01  0.1658E+02
  -3.300  0.1084E+01  0.1659E+02
  -3.290  0.1092E+01  0.1661E+02
  -3.280  0.1097E+01  0.1662E+02
  -3.270  0.1103E+01  0.1663E+02
  -3.260  0.1120E+01  0.1664E+02
  -3.250  0.1130E+01  0.1665E+02
  -3.240  0.1139E+01  0.1666E+02
  -3.230  0.1153E+01  0.1667E+02
  -3.220  0.1159E+01  0.1668E+02
  -3.210  0.1164E+01  0.1670E+02
  -3.200  0.1169E+01  0.1671E+02
  -3.190  0.1185E+01  0.1672E+02
  -3.180  0.1195E+01  0.1673E+02
  -3.170  0.1203E+01  0.1674E+02
  -3.160  0.1215E+01  0.1676E+02
  -3.150  0.1220E+01  0.1677E+02
  -3.140  0.1224E+01  0.1678E+02
  -3.130  0.1228E+01  0.1679E+02
  -3.120  0.1244E+01  0.1680E+02
  -3.110  0.1254E+01  0.1682E+02
  -3.100  0.1260E+01  0.1683E+02
  -3.090  0.1273E+01  0.1684E+02
  -3.080  0.1275E+01  0.1686E+02
  -3.070  0.1277E+01  0.1687E+02
  -3.060  0.1288E+01  0.1688E+02
  -3.050  0.1296E+01  0.1689E+02
  -3.040  0.1304E+01  0.1691E+02
  -3.030  0.1310E+01  0.1692E+02
  -3.020  0.1328E+01  0.1693E+02
  -3.010  0.1324E+01  0.1695E+02
  -3.000  0.1324E+01  0.1696E+02
  -2.990  0.1336E+01  0.1697E+02
  -2.980  0.1343E+01  0.1699E+02
  -2.970  0.1350E+01  0.1700E+02
  -2.960  0.1359E+01  0.1701E+02
  -2.950  0.1377E+01  0.1703E+02
  -2.940  0.1376E+01  0.1704E+02
  -2.930  0.1371E+01  0.1705E+02
  -2.920  0.1386E+01  0.1707E+02
  -2.910  0.1392E+01  0.1708E+02
  -2.900  0.1398E+01  0.1710E+02
  -2.890  0.1415E+01  0.1711E+02
  -2.880  0.1430E+01  0.1712E+02
  -2.870  0.1440E+01  0.1714E+02
  -2.860  0.1448E+01  0.1715E+02
  -2.850  0.1452E+01  0.1717E+02
  -2.840  0.1460E+01  0.1718E+02
  -2.830  0.1478E+01  0.1720E+02
  -2.820  0.1500E+01  0.1721E+02
  -2.810  0.1512E+01  0.1723E+02
  -2.800  0.1547E+01  0.1724E+02
  -2.790  0.1571E+01  0.1726E+02
  -2.780  0.1587E+01  0.1727E+02
  -2.770  0.1620E+01  0.1729E+02
  -2.760  0.1649E+01  0.1731E+02
  -2.750  0.1707E+01  0.1732E+02
  -2.740  0.1748E+01  0.1734E+02
  -2.730  0.1819E+01  0.1736E+02
  -2.720  0.2074E+01  0.1738E+02
  -2.710  0.2326E+01  0.1740E+02
  -2.700  0.2428E+01  0.1742E+02
  -2.690  0.2261E+01  0.1745E+02
  -2.680  0.1876E+01  0.1747E+02
  -2.670  0.1692E+01  0.1748E+02
  -2.660  0.1604E+01  0.1750E+02
  -2.650  0.1490E+01  0.1752E+02
  -2.640  0.1453E+01  0.1753E+02
  -2.630  0.1371E+01  0.1754E+02
  -2.620  0.1308E+01  0.1756E+02
  -2.610  0.1275E+01  0.1757E+02
  -2.600  0.1214E+01  0.1758E+02
  -2.590  0.1175E+01  0.1760E+02
  -2.580  0.1141E+01  0.1761E+02
  -2.570  0.1086E+01  0.1762E+02
  -2.560  0.1074E+01  0.1763E+02
  -2.550  0.1048E+01  0.1764E+02
  -2.540  0.1006E+01  0.1765E+02
  -2.530  0.9701E+00  0.1766E+02
  -2.520  0.9547E+00  0.1767E+02
  -2.510  0.9379E+00  0.1768E+02
  -2.500  0.9016E+00  0.1769E+02
  -2.490  0.8783E+00  0.1770E+02
  -2.480  0.8596E+00  0.1771E+02
  -2.470  0.8410E+00  0.1771E+02
  -2.460  0.8034E+00  0.1772E+02
  -2.450  0.8009E+00  0.1773E+02
  -2.440  0.7918E+00  0.1774E+02
  -2.430  0.7660E+00  0.1775E+02
  -2.420  0.7404E+00  0.1775E+02
  -2.410  0.7200E+00  0.1776E+02
  -2.400  0.7120E+00  0.1777E+02
  -2.390  0.7033E+00  0.1778E+02
  -2.380  0.6958E+00  0.1778E+02
  -2.370  0.6626E+00  0.1779E+02
  -2.360  0.6507E+00  0.1780E+02
  -2.350  0.6389E+00  0.1780E+02
  -2.340  0.6271E+00  0.1781E+02
  -2.330  0.6044E+00  0.1781E+02
  -2.320  0.5950E+00  0.1782E+02
  -2.310  0.5999E+00  0.1783E+02
  -2.300  0.5845E+00  0.1783E+02
  -2.290  0.5674E+00  0.1784E+02
  -2.280  0.5505E+00  0.1784E+02
  -2.270  0.5374E+00  0.1785E+02
  -2.260  0.5310E+00  0.1785E+02
  -2.250  0.5246E+00  0.1786E+02
  -2.240  0.5182E+00  0.1786E+02
  -2.230  0.4959E+00  0.1787E+02
  -2.220  0.4882E+00  0.1787E+02
  -2.210  0.4805E+00  0.1788E+02
  -2.200  0.4729E+00  0.1788E+02
  -2.190  0.4605E+00  0.1789E+02
  -2.180  0.4465E+00  0.1789E+02
  -2.170  0.4516E+00  0.1790E+02
  -2.160  0.4560E+00  0.1790E+02
  -2.150  0.4427E+00  0.1791E+02
  -2.140  0.4236E+00  0.1791E+02
  -2.130  0.4046E+00  0.1792E+02
  -2.120  0.3944E+00  0.1792E+02
  -2.110  0.3925E+00  0.1792E+02
  -2.100  0.3906E+00  0.1793E+02
  -2.090  0.3889E+00  0.1793E+02
  -2.080  0.3813E+00  0.1794E+02
  -2.070  0.3802E+00  0.1794E+02
  -2.060  0.3752E+00  0.1794E+02
  -2.050  0.3584E+00  0.1795E+02
  -2.040  0.3417E+00  0.1795E+02
  -2.030  0.3250E+00  0.1795E+02
  -2.020  0.3329E+00  0.1796E+02
  -2.010  0.3464E+00  0.1796E+02
  -2.000  0.3291E+00  0.1796E+02
  -1.990  0.3013E+00  0.1797E+02
  -1.980  0.3252E+00  0.1797E+02
  -1.970  0.3173E+00  0.1797E+02
  -1.960  0.2962E+00  0.1798E+02
  -1.950  0.2752E+00  0.1798E+02
  -1.940  0.3018E+00  0.1798E+02
  -1.930  0.2764E+00  0.1798E+02
  -1.920  0.2511E+00  0.1799E+02
  -1.910  0.3233E+00  0.1799E+02
  -1.900  0.2796E+00  0.1799E+02
  -1.890  0.2320E+00  0.1800E+02
  -1.880  0.2382E+00  0.1800E+02
  -1.870  0.0000E+00  0.1800E+02
  -1.860  0.0000E+00  0.1800E+02
  -1.850  0.0000E+00  0.1800E+02
  -1.840  0.0000E+00  0.1800E+02
  -1.830  0.0000E+00  0.1800E+02
  -1.820  0.0000E+00  0.1800E+02
  -1.810  0.0000E+00  0.1800E+02
  -1.800  0.0000E+00  0.1800E+02
  -1.790  0.0000E+00  0.1800E+02
  -1.780  0.0000E+00  0.1800E+02
  -1.770  0.0000E+00  0.1800E+02
  -1.760  0.0000E+00  0.1800E+02
  -1.750  0.0000E+00  0.1800E+02
  -1.740  0.0000E+00  0.1800E+02
  -1.730  0.0000E+00  0.1800E+02
  -1.720  0.0000E+00  0.1800E+02
  -1.710  0.0000E+00  0.1800E+02
  -1.700  0.0000E+00  0.1800E+02
  -1.690  0.0000E+00  0.1800E+02
  -1.680  0.0000E+00  0.1800E+02
  -1.670  0.0000E+00  0.1800E+02
  -1.660  0.0000E+00  0.1800E+02
  -1.650  0.0000E+00  0.1800E+02
  -1.640  0.0000E+00  0.1800E+02
  -1.630  0.0000E+00  0.1800E+02
  -1.620  0.0000E+00  0.1800E+02
  -1.610  0.0000E+00  0.1800E+02
  -1.600  0.0000E+00  0.1800E+02
  -1.590  0.0000E+00  0.1800E+02
  -1.580  0.0000E+00  0.1800E+02
  -1.570  0.0000E+00  0.1800E+02
  -1.560  0.0000E+00  0.1800E+02
  -1.550  0.0000E+00  0.1800E+02
  -1.540  0.0000E+00  0.1800E+02
  -1.530  0.0000E+00  0.1800E+02
  -1.520  0.0000E+00  0.1800E+02
  -1.510  0.0000E+00  0.1800E+02
  -1.500  0.0000E+00  0.1800E+02
  -1.490  0.0000E+00  0.1800E+02
  -1.480  0.0000E+00  0.1800E+02
  -1.470  0.0000E+00  0.1800E+02
  -1.460  0.0000E+00  0.1800E+02
  -1.450  0.0000E+00  0.1800E+02
  -1.440  0.0000E+00  0.1800E+02
  -1.430  0.0000E+00  0.1800E+02
  -1.420  0.0000E+00  0.1800E+02
  -1.410  0.0000E+00  0.1800E+02
  -1.400  0.0000E+00  0.1800E+02
  -1.390  0.0000E+00  0.1800E+02
  -1.380  0.0000E+00  0.1800E+02
  -1.370  0.0000E+00  0.1800E+02
  -1.360  0.0000E+00  0.1800E+02
  -1.350  0.0000E+00  0.1800E+02
  -1.340  0.0000E+00  0.1800E+02
  -1.330  0.0000E+00  0.1800E+02
  -1.320  0.0000E+00  0.1800E+02
  -1.310  0.0000E+00  0.1800E+02
  -1.300  0.0000E+00  0.1800E+02
  -1.290  0.0000E+00  0.1800E+02
  -1.280  0.0000E+00  0.1800E+02
  -1.270  0.0000E+00  0.1800E+02
  -1.260  0.0000E+00  0.1800E+02
  -1.250  0.0000E+00  0.1800E+02
  -1.240  0.0000E+00  0.1800E+02
  -1.230  0.0000E+00  0.1800E+02
  -1.220  0.0000E+00  0.1800E+02
  -1.210  0.0000E+00  0.1800E+02
  -1.200  0.0000E+00  0.1800E+02
  -1.190  0.0000E+00  0.1800E+02
  -1.180  0.0000E+00  0.1800E+02
  -1.170  0.0000E+00  0.1800E+02
  -1.160  0.0000E+00  0.1800E+02
  -1.150  0.0000E+00  0.1800E+02
  -1.140  0.0000E+00  0.1800E+02
  -1.130  0.0000E+00  0.1800E+02
  -1.120  0.0000E+00  0.1800E+02
  -1.110  0.0000E+00  0.1800E+02
  -1.100  0.0000E+00  0.1800E+02
  -1.090  0.0000E+00  0.1800E+02
  -1.080  0.0000E+00  0.1800E+02
  -1.070  0.0000E+00  0.1800E+02
  -1.060  0.0000E+00  0.1800E+02
  -1.050  0.0000E+00  0.1800E+02
  -1.040  0.0000E+00  0.1800E+02
  -1.030  0.0000E+00  0.1800E+02
  -1.020  0.0000E+00  0.1800E+02
  -1.010  0.0000E+00  0.1800E+02
  -1.000  0.0000E+00  0.1800E+02
  -0.990  0.0000E+00  0.1800E+02
  -0.980  0.0000E+00  0.1800E+02
  -0.970  0.0000E+00  0.1800E+02
  -0.960  0.0000E+00  0.1800E+02
  -0.950  0.0000E+00  0.1800E+02
  -0.940  0.0000E+00  0.1800E+02
  -0.930  0.0000E+00  0.1800E+02
  -0.920  0.0000E+00  0.1800E+02
  -0.910  0.0000E+00  0.1800E+02
  -0.900  0.0000E+00  0.1800E+02
  -0.890  0.0000E+00  0.1800E+02
  -0.880  0.0000E+00  0.1800E+02
  -0.870  0.0000E+00  0.1800E+02
  -0.860  0.0000E+00  0.1800E+02
  -0.850  0.0000E+00  0.1800E+02
  -0.840  0.0000E+00  0.1800E+02
  -0.830  0.0000E+00  0.1800E+02
  -0.820  0.0000E+00  0.1800E+02
  -0.810  0.0000E+00  0.1800E+02
  -0.800  0.0000E+00  0.1800E+02
  -0.790  0.0000E+00  0.1800E+02
  -0.780  0.0000E+00  0.1800E+02
  -0.770  0.0000E+00  0.1800E+02
  -0.760  0.0000E+00  0.1800E+02
  -0.750  0.0000E+00  0.1800E+02
  -0.740  0.0000E+00  0.1800E+02
  -0.730  0.0000E+00  0.1800E+02
  -0.720  0.0000E+00  0.1800E+02
  -0.710  0.0000E+00  0.1800E+02
  -0.700  0.0000E+00  0.1800E+02
  -0.690  0.0000E+00  0.1800E+02
  -0.680  0.0000E+00  0.1800E+02
  -0.670  0.0000E+00  0.1800E+02
  -0.660  0.0000E+00  0.1800E+02
  -0.650  0.0000E+00  0.1800E+02
  -0.640  0.0000E+00  0.1800E+02
  -0.630  0.0000E+00  0.1800E+02
  -0.620  0.0000E+00  0.1800E+02
  -0.610  0.0000E+00  0.1800E+02
  -0.600  0.0000E+00  0.1800E+02
  -0.590  0.0000E+00  0.1800E+02
  -0.580  0.0000E+00  0.1800E+02
  -0.570  0.0000E+00  0.1800E+02
  -0.560  0.0000E+00  0.1800E+02
  -0.550  0.2109E+00  0.1800E+02
  -0.540  0.5415E+00  0.1800E+02
  -0.530  0.5208E+00  0.1801E+02
  -0.520  0.4670E+00  0.1801E+02
  -0.510  0.4934E+00  0.1802E+02
  -0.500  0.4956E+00  0.1802E+02
  -0.490  0.4927E+00  0.1803E+02
  -0.480  0.4974E+00  0.1804E+02
  -0.470  0.5133E+00  0.1804E+02
  -0.460  0.5347E+00  0.1805E+02
  -0.450  0.5560E+00  0.1805E+02
  -0.440  0.5770E+00  0.1806E+02
  -0.430  0.5733E+00  0.1806E+02
  -0.420  0.6614E+00  0.1807E+02
  -0.410  0.5355E+00  0.1807E+02
  -0.400  0.5485E+00  0.1808E+02
  -0.390  0.5677E+00  0.1809E+02
  -0.380  0.5886E+00  0.1809E+02
  -0.370  0.6129E+00  0.1810E+02
  -0.360  0.6371E+00  0.1810E+02
  -0.350  0.6261E+00  0.1811E+02
  -0.340  0.6319E+00  0.1812E+02
  -0.330  0.9661E+00  0.1812E+02
  -0.320  0.8808E+00  0.1813E+02
  -0.310  0.9400E+00  0.1814E+02
  -0.300  0.9997E+00  0.1815E+02
  -0.290  0.9999E+00  0.1816E+02
  -0.280  0.1114E+01  0.1817E+02
  -0.270  0.1064E+01  0.1818E+02
  -0.260  0.1133E+01  0.1819E+02
  -0.250  0.1284E+01  0.1821E+02
  -0.240  0.1219E+01  0.1822E+02
  -0.230  0.1330E+01  0.1823E+02
  -0.220  0.1421E+01  0.1824E+02
  -0.210  0.1549E+01  0.1826E+02
  -0.200  0.1896E+01  0.1828E+02
  -0.190  0.1494E+01  0.1829E+02
  -0.180  0.1308E+01  0.1831E+02
  -0.170  0.1260E+01  0.1832E+02
  -0.160  0.1276E+01  0.1833E+02
  -0.150  0.1214E+01  0.1835E+02
  -0.140  0.1159E+01  0.1836E+02
  -0.130  0.1127E+01  0.1837E+02
  -0.120  0.1142E+01  0.1838E+02
  -0.110  0.1074E+01  0.1839E+02
  -0.100  0.1027E+01  0.1840E+02
  -0.090  0.1009E+01  0.1841E+02
  -0.080  0.9838E+00  0.1842E+02
  -0.070  0.9724E+00  0.1843E+02
  -0.060  0.9671E+00  0.1844E+02
  -0.050  0.9620E+00  0.1845E+02
  -0.040  0.9351E+00  0.1846E+02
  -0.030  0.9178E+00  0.1847E+02
  -0.020  0.8974E+00  0.1848E+02
  -0.010  0.8767E+00  0.1849E+02
   0.000  0.8669E+00  0.1850E+02
   0.010  0.8631E+00  0.1851E+02
   0.020  0.8579E+00  0.1851E+02
   0.030  0.8537E+00  0.1852E+02
   0.040  0.8500E+00  0.1853E+02
   0.050  0.8312E+00  0.1854E+02
   0.060  0.8189E+00  0.1855E+02
   0.070  0.8091E+00  0.1856E+02
   0.080  0.7931E+00  0.1856E+02
   0.090  0.7876E+00  0.1857E+02
   0.100  0.7822E+00  0.1858E+02
   0.110  0.7768E+00  0.1859E+02
   0.120  0.7753E+00  0.1860E+02
   0.130  0.7740E+00  0.1860E+02
   0.140  0.7727E+00  0.1861E+02
   0.150  0.7688E+00  0.1862E+02
   0.160  0.7648E+00  0.1863E+02
   0.170  0.7460E+00  0.1863E+02
   0.180  0.7359E+00  0.1864E+02
   0.190  0.7287E+00  0.1865E+02
   0.200  0.7292E+00  0.1866E+02
   0.210  0.7260E+00  0.1866E+02
   0.220  0.7224E+00  0.1867E+02
   0.230  0.7188E+00  0.1868E+02
   0.240  0.7151E+00  0.1868E+02
   0.250  0.7115E+00  0.1869E+02
   0.260  0.7082E+00  0.1870E+02
   0.270  0.7070E+00  0.1871E+02
   0.280  0.6998E+00  0.1871E+02
   0.290  0.7005E+00  0.1872E+02
   0.300  0.6940E+00  0.1873E+02
   0.310  0.6879E+00  0.1873E+02
   0.320  0.6844E+00  0.1874E+02
   0.330  0.6813E+00  0.1875E+02
   0.340  0.6781E+00  0.1875E+02
   0.350  0.6749E+00  0.1876E+02
   0.360  0.6767E+00  0.1877E+02
   0.370  0.6737E+00  0.1877E+02
   0.380  0.6694E+00  0.1878E+02
   0.390  0.6651E+00  0.1879E+02
   0.400  0.6614E+00  0.1879E+02
   0.410  0.6602E+00  0.1880E+02
   0.420  0.6590E+00  0.1881E+02
   0.430  0.6582E+00  0.1881E+02
   0.440  0.6589E+00  0.1882E+02
   0.450  0.6534E+00  0.1883E+02
   0.460  0.6507E+00  0.1883E+02
   0.470  0.6476E+00  0.1884E+02
   0.480  0.6450E+00  0.1885E+02
   0.490  0.6425E+00  0.1885E+02
   0.500  0.6387E+00  0.1886E+02
   0.510  0.6344E+00  0.1887E+02
   0.520  0.6311E+00  0.1887E+02
   0.530  0.6301E+00  0.1888E+02
   0.540  0.6334E+00  0.1889E+02
   0.550  0.6351E+00  0.1889E+02
   0.560  0.6340E+00  0.1890E+02
   0.570  0.6328E+00  0.1890E+02
   0.580  0.6316E+00  0.1891E+02
   0.590  0.6305E+00  0.1892E+02
   0.600  0.6293E+00  0.1892E+02
   0.610  0.6252E+00  0.1893E+02
   0.620  0.6205E+00  0.1894E+02
   0.630  0.6193E+00  0.1894E+02
   0.640  0.6143E+00  0.1895E+02
   0.650  0.6127E+00  0.1895E+02
   0.660  0.6121E+00  0.1896E+02
   0.670  0.6113E+00  0.1897E+02
   0.680  0.6105E+00  0.1897E+02
   0.690  0.6096E+00  0.1898E+02
   0.700  0.6088E+00  0.1898E+02
   0.710  0.6079E+00  0.1899E+02
   0.720  0.6071E+00  0.1900E+02
   0.730  0.6098E+00  0.1900E+02
   0.740  0.6101E+00  0.1901E+02
   0.750  0.6099E+00  0.1902E+02
   0.760  0.6095E+00  0.1902E+02
   0.770  0.6076E+00  0.1903E+02
   0.780  0.6059E+00  0.1903E+02
   0.790  0.6008E+00  0.1904E+02
   0.800  0.5988E+00  0.1905E+02
   0.810  0.5969E+00  0.1905E+02
   0.820  0.5965E+00  0.1906E+02
   0.830  0.5963E+00  0.1906E+02
   0.840  0.5962E+00  0.1907E+02
   0.850  0.5961E+00  0.1908E+02
   0.860  0.5954E+00  0.1908E+02
   0.870  0.5945E+00  0.1909E+02
   0.880  0.5935E+00  0.1909E+02
   0.890  0.5925E+00  0.1910E+02
   0.900  0.5916E+00  0.1911E+02
   0.910  0.5888E+00  0.1911E+02
   0.920  0.5865E+00  0.1912E+02
   0.930  0.5897E+00  0.1912E+02
   0.940  0.5908E+00  0.1913E+02
   0.950  0.5923E+00  0.1913E+02
   0.960  0.5933E+00  0.1914E+02
   0.970  0.5915E+00  0.1915E+02
   0.980  0.5915E+00  0.1915E+02
   0.990  0.5899E+00  0.1916E+02
   1.000  0.5883E+00  0.1916E+02
   1.010  0.5867E+00  0.1917E+02
   1.020  0.5855E+00  0.1918E+02
   1.030  0.5854E+00  0.1918E+02
   1.040  0.5852E+00  0.1919E+02
   1.050  0.5843E+00  0.1919E+02
   1.060  0.5827E+00  0.1920E+02
   1.070  0.5813E+00  0.1921E+02
   1.080  0.5813E+00  0.1921E+02
   1.090  0.5814E+00  0.1922E+02
   1.100  0.5814E+00  0.1922E+02
   1.110  0.5816E+00  0.1923E+02
   1.120  0.5820E+00  0.1923E+02
   1.130  0.5824E+00  0.1924E+02
   1.140  0.5858E+00  0.1925E+02
   1.150  0.5851E+00  0.1925E+02
   1.160  0.5842E+00  0.1926E+02
   1.170  0.5833E+00  0.1926E+02
   1.180  0.5829E+00  0.1927E+02
   1.190  0.5825E+00  0.1927E+02
   1.200  0.5820E+00  0.1928E+02
   1.210  0.5814E+00  0.1929E+02
   1.220  0.5793E+00  0.1929E+02
   1.230  0.5791E+00  0.1930E+02
   1.240  0.5800E+00  0.1930E+02
   1.250  0.5808E+00  0.1931E+02
   1.260  0.5816E+00  0.1932E+02
   1.270  0.5820E+00  0.1932E+02
   1.280  0.5820E+00  0.1933E+02
   1.290  0.5826E+00  0.1933E+02
   1.300  0.5827E+00  0.1934E+02
   1.310  0.5827E+00  0.1934E+02
   1.320  0.5828E+00  0.1935E+02
   1.330  0.5828E+00  0.1936E+02
   1.340  0.5824E+00  0.1936E+02
   1.350  0.5834E+00  0.1937E+02
   1.360  0.5829E+00  0.1937E+02
   1.370  0.5795E+00  0.1938E+02
   1.380  0.5801E+00  0.1939E+02
   1.390  0.5807E+00  0.1939E+02
   1.400  0.5813E+00  0.1940E+02
   1.410  0.5819E+00  0.1940E+02
   1.420  0.5823E+00  0.1941E+02
   1.430  0.5826E+00  0.1941E+02
   1.440  0.5865E+00  0.1942E+02
   1.450  0.5873E+00  0.1943E+02
   1.460  0.5884E+00  0.1943E+02
   1.470  0.5896E+00  0.1944E+02
   1.480  0.5899E+00  0.1944E+02
   1.490  0.5898E+00  0.1945E+02
   1.500  0.5898E+00  0.1946E+02
   1.510  0.5892E+00  0.1946E+02
   1.520  0.5885E+00  0.1947E+02
   1.530  0.5878E+00  0.1947E+02
   1.540  0.5862E+00  0.1948E+02
   1.550  0.5890E+00  0.1949E+02
   1.560  0.5895E+00  0.1949E+02
   1.570  0.5901E+00  0.1950E+02
   1.580  0.5907E+00  0.1950E+02
   1.590  0.5912E+00  0.1951E+02
   1.600  0.5918E+00  0.1951E+02
   1.610  0.5924E+00  0.1952E+02
   1.620  0.5928E+00  0.1953E+02
   1.630  0.5930E+00  0.1953E+02
   1.640  0.5945E+00  0.1954E+02
   1.650  0.5964E+00  0.1954E+02
   1.660  0.5984E+00  0.1955E+02
   1.670  0.6004E+00  0.1956E+02
   1.680  0.6015E+00  0.1956E+02
   1.690  0.6023E+00  0.1957E+02
   1.700  0.6035E+00  0.1957E+02
   1.710  0.6042E+00  0.1958E+02
   1.720  0.6049E+00  0.1959E+02
   1.730  0.6051E+00  0.1959E+02
   1.740  0.6045E+00  0.1960E+02
   1.750  0.6084E+00  0.1960E+02
   1.760  0.6092E+00  0.1961E+02
   1.770  0.6101E+00  0.1962E+02
   1.780  0.6107E+00  0.1962E+02
   1.790  0.6113E+00  0.1963E+02
   1.800  0.6118E+00  0.1964E+02
   1.810  0.6128E+00  0.1964E+02
   1.820  0.6140E+00  0.1965E+02
   1.830  0.6152E+00  0.1965E+02
   1.840  0.6187E+00  0.1966E+02
   1.850  0.6211E+00  0.1967E+02
   1.860  0.6230E+00  0.1967E+02
   1.870  0.6265E+00  0.1968E+02
   1.880  0.6293E+00  0.1968E+02
   1.890  0.6321E+00  0.1969E+02
   1.900  0.6349E+00  0.1970E+02
   1.910  0.6383E+00  0.1970E+02
   1.920  0.6416E+00  0.1971E+02
   1.930  0.6485E+00  0.1972E+02
   1.940  0.6526E+00  0.1972E+02
   1.950  0.6593E+00  0.1973E+02
   1.960  0.6623E+00  0.1974E+02
   1.970  0.6653E+00  0.1974E+02
   1.980  0.6681E+00  0.1975E+02
   1.990  0.8775E+00  0.1976E+02
   2.000  0.9250E+00  0.1977E+02
   2.010  0.9909E+00  0.1978E+02
   2.020  0.9922E+00  0.1979E+02
   2.030  0.9726E+00  0.1980E+02
   2.040  0.1003E+01  0.1981E+02
   2.050  0.1059E+01  0.1982E+02
   2.060  0.1023E+01  0.1983E+02
   2.070  0.9919E+00  0.1984E+02
   2.080  0.9736E+00  0.1985E+02
   2.090  0.9701E+00  0.1986E+02
   2.100  0.9758E+00  0.1987E+02
   2.110  0.9582E+00  0.1988E+02
   2.120  0.9383E+00  0.1989E+02
   2.130  0.9361E+00  0.1989E+02
   2.140  0.9458E+00  0.1990E+02
   2.150  0.9532E+00  0.1991E+02
   2.160  0.9268E+00  0.1992E+02
   2.170  0.8917E+00  0.1993E+02
   2.180  0.8417E+00  0.1994E+02
   2.190  0.8278E+00  0.1995E+02
   2.200  0.8426E+00  0.1996E+02
   2.210  0.8553E+00  0.1997E+02
   2.220  0.8716E+00  0.1997E+02
   2.230  0.8870E+00  0.1998E+02
   2.240  0.9073E+00  0.1999E+02
   2.250  0.9380E+00  0.2000E+02
   2.260  0.9518E+00  0.2001E+02
   2.270  0.9795E+00  0.2002E+02
   2.280  0.1009E+01  0.2003E+02
   2.290  0.1045E+01  0.2004E+02
   2.300  0.1132E+01  0.2005E+02
   2.310  0.1101E+01  0.2006E+02
   2.320  0.1100E+01  0.2007E+02
   2.330  0.1110E+01  0.2008E+02
   2.340  0.1114E+01  0.2010E+02
   2.350  0.1113E+01  0.2011E+02
   2.360  0.1117E+01  0.2012E+02
   2.370  0.1123E+01  0.2013E+02
   2.380  0.1141E+01  0.2014E+02
   2.390  0.1142E+01  0.2015E+02
   2.400  0.1146E+01  0.2016E+02
   2.410  0.1145E+01  0.2017E+02
   2.420  0.1147E+01  0.2019E+02
   2.430  0.1155E+01  0.2020E+02
   2.440  0.1163E+01  0.2021E+02
   2.450  0.1153E+01  0.2022E+02
   2.460  0.1312E+01  0.2023E+02
   2.470  0.1334E+01  0.2025E+02
   2.480  0.1131E+01  0.2026E+02
   2.490  0.1122E+01  0.2027E+02
   2.500  0.1131E+01  0.2029E+02
   2.510  0.1150E+01  0.2030E+02
   2.520  0.1182E+01  0.2031E+02
   2.530  0.1209E+01  0.2032E+02
   2.540  0.1236E+01  0.2033E+02
   2.550  0.1278E+01  0.2035E+02
   2.560  0.1313E+01  0.2036E+02
   2.570  0.1568E+01  0.2037E+02
   2.580  0.1646E+01  0.2039E+02
   2.590  0.1734E+01  0.2041E+02
   2.600  0.2001E+01  0.2042E+02
   2.610  0.1827E+01  0.2044E+02
   2.620  0.1949E+01  0.2046E+02
   2.630  0.2066E+01  0.2048E+02
   2.640  0.2363E+01  0.2050E+02
   2.650  0.2920E+01  0.2053E+02
   2.660  0.5648E+01  0.2057E+02
   2.670  0.3402E+01  0.2062E+02
   2.680  0.3205E+01  0.2065E+02
   2.690  0.3027E+01  0.2068E+02
   2.700  0.2900E+01  0.2071E+02
   2.710  0.2662E+01  0.2074E+02
   2.720  0.2624E+01  0.2076E+02
   2.730  0.2575E+01  0.2079E+02
   2.740  0.2515E+01  0.2081E+02
   2.750  0.2479E+01  0.2084E+02
   2.760  0.2387E+01  0.2086E+02
   2.770  0.2359E+01  0.2089E+02
   2.780  0.2330E+01  0.2091E+02
   2.790  0.2496E+01  0.2093E+02
   2.800  0.2605E+01  0.2096E+02
   2.810  0.2751E+01  0.2099E+02
   2.820  0.2876E+01  0.2102E+02
   2.830  0.2925E+01  0.2105E+02
   2.840  0.3020E+01  0.2107E+02
   2.850  0.2921E+01  0.2110E+02
   2.860  0.3051E+01  0.2113E+02
   2.870  0.3201E+01  0.2117E+02
   2.880  0.3087E+01  0.2120E+02
   2.890  0.3091E+01  0.2123E+02
   2.900  0.3155E+01  0.2126E+02
   2.910  0.3066E+01  0.2129E+02
   2.920  0.2793E+01  0.2132E+02
   2.930  0.2724E+01  0.2135E+02
   2.940  0.2634E+01  0.2138E+02
   2.950  0.2597E+01  0.2140E+02
   2.960  0.2564E+01  0.2143E+02
   2.970  0.2541E+01  0.2145E+02
   2.980  0.2521E+01  0.2148E+02
   2.990  0.2469E+01  0.2150E+02
   3.000  0.2405E+01  0.2153E+02
   3.010  0.2455E+01  0.2155E+02
   3.020  0.2487E+01  0.2158E+02
   3.030  0.2357E+01  0.2160E+02
   3.040  0.2351E+01  0.2162E+02
   3.050  0.2344E+01  0.2165E+02
   3.060  0.2312E+01  0.2167E+02
   3.070  0.2269E+01  0.2169E+02
   3.080  0.2236E+01  0.2172E+02
   3.090  0.2212E+01  0.2174E+02
   3.100  0.2190E+01  0.2176E+02
   3.110  0.2170E+01  0.2178E+02
   3.120  0.2152E+01  0.2180E+02
   3.130  0.2134E+01  0.2183E+02
   3.140  0.2115E+01  0.2185E+02
   3.150  0.2305E+01  0.2187E+02
   3.160  0.2081E+01  0.2189E+02
   3.170  0.2068E+01  0.2191E+02
   3.180  0.2056E+01  0.2193E+02
   3.190  0.2032E+01  0.2195E+02
   3.200  0.2033E+01  0.2197E+02
   3.210  0.2023E+01  0.2199E+02
   3.220  0.1973E+01  0.2201E+02
   3.230  0.1894E+01  0.2203E+02
   3.240  0.1796E+01  0.2205E+02
   3.250  0.1782E+01  0.2207E+02
   3.260  0.1778E+01  0.2209E+02
   3.270  0.1772E+01  0.2211E+02
   3.280  0.1788E+01  0.2212E+02
   3.290  0.1802E+01  0.2214E+02
   3.300  0.1827E+01  0.2216E+02
   3.310  0.1878E+01  0.2218E+02
   3.320  0.1896E+01  0.2220E+02
   3.330  0.1950E+01  0.2222E+02
   3.340  0.2043E+01  0.2224E+02
   3.350  0.2178E+01  0.2226E+02
   3.360  0.2139E+01  0.2228E+02
   3.370  0.2075E+01  0.2230E+02
   3.380  0.2019E+01  0.2232E+02
   3.390  0.2051E+01  0.2234E+02
   3.400  0.1822E+01  0.2236E+02
   3.410  0.1684E+01  0.2238E+02
   3.420  0.1539E+01  0.2239E+02
   3.430  0.1821E+01  0.2241E+02
   3.440  0.1450E+01  0.2243E+02
   3.450  0.1355E+01  0.2244E+02
   3.460  0.1449E+01  0.2246E+02
   3.470  0.1450E+01  0.2247E+02
   3.480  0.1544E+01  0.2248E+02
   3.490  0.1559E+01  0.2250E+02
   3.500  0.1527E+01  0.2252E+02
   3.510  0.1564E+01  0.2253E+02
   3.520  0.1624E+01  0.2255E+02
   3.530  0.1692E+01  0.2256E+02
   3.540  0.1777E+01  0.2258E+02
   3.550  0.1731E+01  0.2260E+02
   3.560  0.1788E+01  0.2262E+02
   3.570  0.1950E+01  0.2263E+02
   3.580  0.2146E+01  0.2265E+02
   3.590  0.3164E+01  0.2268E+02
   3.600  0.2366E+01  0.2271E+02
   3.610  0.2303E+01  0.2273E+02
   3.620  0.2188E+01  0.2276E+02
   3.630  0.2113E+01  0.2278E+02
   3.640  0.2057E+01  0.2280E+02
   3.650  0.2060E+01  0.2282E+02
   3.660  0.2049E+01  0.2284E+02
   3.670  0.2037E+01  0.2286E+02
   3.680  0.2058E+01  0.2288E+02
   3.690  0.2118E+01  0.2290E+02
   3.700  0.2442E+01  0.2292E+02
   3.710  0.2567E+01  0.2295E+02
   3.720  0.2787E+01  0.2298E+02
   3.730  0.2716E+01  0.2300E+02
   3.740  0.2798E+01  0.2303E+02
   3.750  0.2819E+01  0.2306E+02
   3.760  0.2841E+01  0.2309E+02
   3.770  0.2915E+01  0.2312E+02
   3.780  0.3018E+01  0.2315E+02
   3.790  0.3491E+01  0.2318E+02
   3.800  0.3176E+01  0.2321E+02
   3.810  0.2992E+01  0.2325E+02
   3.820  0.2983E+01  0.2328E+02
   3.830  0.3014E+01  0.2331E+02
   3.840  0.2998E+01  0.2334E+02
   3.850  0.3067E+01  0.2337E+02
   3.860  0.3091E+01  0.2340E+02
   3.870  0.3166E+01  0.2343E+02
   3.880  0.3278E+01  0.2346E+02
   3.890  0.3621E+01  0.2349E+02
   3.900  0.5753E+01  0.2354E+02
   3.910  0.4726E+01  0.2359E+02
   3.920  0.3988E+01  0.2364E+02
   3.930  0.3886E+01  0.2368E+02
   3.940  0.3421E+01  0.2371E+02
   3.950  0.2999E+01  0.2375E+02
   3.960  0.2511E+01  0.2377E+02
   3.970  0.2449E+01  0.2380E+02
   3.980  0.2394E+01  0.2382E+02
   3.990  0.2343E+01  0.2384E+02
   4.000  0.2294E+01  0.2387E+02
   4.010  0.2248E+01  0.2389E+02
   4.020  0.2232E+01  0.2391E+02
   4.030  0.2208E+01  0.2394E+02
   4.040  0.2181E+01  0.2396E+02
   4.050  0.2169E+01  0.2398E+02
   4.060  0.2157E+01  0.2400E+02
   4.070  0.2146E+01  0.2402E+02
   4.080  0.2128E+01  0.2404E+02
   4.090  0.2123E+01  0.2406E+02
   4.100  0.2142E+01  0.2409E+02
   4.110  0.2156E+01  0.2411E+02
   4.120  0.2164E+01  0.2413E+02
   4.130  0.2155E+01  0.2415E+02
   4.140  0.2153E+01  0.2417E+02
   4.150  0.2157E+01  0.2419E+02
   4.160  0.2171E+01  0.2422E+02
   4.170  0.2308E+01  0.2424E+02
   4.180  0.2452E+01  0.2426E+02
   4.190  0.2658E+01  0.2429E+02
   4.200  0.3984E+01  0.2432E+02
   4.210  0.4820E+01  0.2437E+02
   4.220  0.4592E+01  0.2441E+02
   4.230  0.4405E+01  0.2446E+02
   4.240  0.4349E+01  0.2450E+02
   4.250  0.3390E+01  0.2454E+02
   4.260  0.3098E+01  0.2457E+02
   4.270  0.2831E+01  0.2460E+02
   4.280  0.2597E+01  0.2463E+02
   4.290  0.2382E+01  0.2465E+02
   4.300  0.2090E+01  0.2467E+02
   4.310  0.2071E+01  0.2470E+02
   4.320  0.2061E+01  0.2472E+02
   4.330  0.2044E+01  0.2474E+02
   4.340  0.2028E+01  0.2476E+02
   4.350  0.2013E+01  0.2478E+02
   4.360  0.2001E+01  0.2480E+02
   4.370  0.1995E+01  0.2482E+02
   4.380  0.1994E+01  0.2484E+02
   4.390  0.1989E+01  0.2486E+02
   4.400  0.1985E+01  0.2488E+02
   4.410  0.1981E+01  0.2490E+02
   4.420  0.1981E+01  0.2492E+02
   4.430  0.1985E+01  0.2494E+02
   4.440  0.1984E+01  0.2496E+02
   4.450  0.1982E+01  0.2498E+02
   4.460  0.1974E+01  0.2500E+02
   4.470  0.1963E+01  0.2502E+02
   4.480  0.1949E+01  0.2504E+02
   4.490  0.1940E+01  0.2505E+02
   4.500  0.1937E+01  0.2507E+02
   4.510  0.1936E+01  0.2509E+02
   4.520  0.1941E+01  0.2511E+02
   4.530  0.1938E+01  0.2513E+02
   4.540  0.1940E+01  0.2515E+02
   4.550  0.1938E+01  0.2517E+02
   4.560  0.1940E+01  0.2519E+02
   4.570  0.1935E+01  0.2521E+02
   4.580  0.1934E+01  0.2523E+02
   4.590  0.1931E+01  0.2525E+02
   4.600  0.1927E+01  0.2527E+02
   4.610  0.1949E+01  0.2529E+02
   4.620  0.1990E+01  0.2531E+02
   4.630  0.1951E+01  0.2533E+02
   4.640  0.1916E+01  0.2535E+02
   4.650  0.1920E+01  0.2536E+02
   4.660  0.2156E+01  0.2539E+02
   4.670  0.2212E+01  0.2541E+02
   4.680  0.2263E+01  0.2543E+02
   4.690  0.2197E+01  0.2545E+02
   4.700  0.2223E+01  0.2547E+02
   4.710  0.2256E+01  0.2550E+02
   4.720  0.2208E+01  0.2552E+02
   4.730  0.2201E+01  0.2554E+02
   4.740  0.2226E+01  0.2556E+02
   4.750  0.2324E+01  0.2559E+02
   4.760  0.2288E+01  0.2561E+02
   4.770  0.2253E+01  0.2563E+02
   4.780  0.2240E+01  0.2565E+02
   4.790  0.2247E+01  0.2568E+02
   4.800  0.2265E+01  0.2570E+02
   4.810  0.2281E+01  0.2572E+02
   4.820  0.2258E+01  0.2574E+02
   4.830  0.2286E+01  0.2577E+02
   4.840  0.2347E+01  0.2579E+02
   4.850  0.2368E+01  0.2581E+02
   4.860  0.2354E+01  0.2584E+02
   4.870  0.2352E+01  0.2586E+02
   4.880  0.2354E+01  0.2588E+02
   4.890  0.2328E+01  0.2591E+02
   4.900  0.2300E+01  0.2593E+02
   4.910  0.2537E+01  0.2596E+02
   4.920  0.2771E+01  0.2598E+02
   4.930  0.3141E+01  0.2601E+02
   4.940  0.3835E+01  0.2605E+02
   4.950  0.4036E+01  0.2609E+02
   4.960  0.3911E+01  0.2613E+02
   4.970  0.4070E+01  0.2617E+02
   4.980  0.3863E+01  0.2621E+02
   4.990  0.3627E+01  0.2624E+02
   5.000  0.3562E+01  0.2628E+02
   5.010  0.3550E+01  0.2632E+02
   5.020  0.3532E+01  0.2635E+02
   5.030  0.3573E+01  0.2639E+02
   5.040  0.3598E+01  0.2642E+02
   5.050  0.3652E+01  0.2646E+02
   5.060  0.3763E+01  0.2650E+02
   5.070  0.3928E+01  0.2653E+02
   5.080  0.4323E+01  0.2657E+02
   5.090  0.4483E+01  0.2662E+02
   5.100  0.4598E+01  0.2666E+02
   5.110  0.6017E+01  0.2671E+02
   5.120  0.5221E+01  0.2677E+02
   5.130  0.4804E+01  0.2682E+02
   5.140  0.3547E+01  0.2686E+02
   5.150  0.3083E+01  0.2689E+02
   5.160  0.3066E+01  0.2692E+02
   5.170  0.3078E+01  0.2695E+02
   5.180  0.3054E+01  0.2698E+02
   5.190  0.2469E+01  0.2701E+02
   5.200  0.2436E+01  0.2704E+02
   5.210  0.2567E+01  0.2706E+02
   5.220  0.2867E+01  0.2709E+02
   5.230  0.3157E+01  0.2712E+02
   5.240  0.6392E+01  0.2716E+02
   5.250  0.6301E+01  0.2722E+02
   5.260  0.5588E+01  0.2728E+02
   5.270  0.6198E+01  0.2734E+02
   5.280  0.4885E+01  0.2740E+02
   5.290  0.4180E+01  0.2745E+02
   5.300  0.3595E+01  0.2748E+02
   5.310  0.2838E+01  0.2752E+02
   5.320  0.3169E+01  0.2755E+02
   5.330  0.2814E+01  0.2757E+02
   5.340  0.2923E+01  0.2760E+02
   5.350  0.2989E+01  0.2763E+02
   5.360  0.3049E+01  0.2766E+02
   5.370  0.3115E+01  0.2769E+02
   5.380  0.3271E+01  0.2773E+02
   5.390  0.3288E+01  0.2776E+02
   5.400  0.3289E+01  0.2779E+02
   5.410  0.3289E+01  0.2782E+02
   5.420  0.3470E+01  0.2786E+02
   5.430  0.3264E+01  0.2789E+02
   5.440  0.3275E+01  0.2792E+02
   5.450  0.3282E+01  0.2796E+02
   5.460  0.3281E+01  0.2799E+02
   5.470  0.3401E+01  0.2802E+02
   5.480  0.3357E+01  0.2806E+02
   5.490  0.3308E+01  0.2809E+02
   5.500  0.3258E+01  0.2812E+02
   5.510  0.3279E+01  0.2816E+02
   5.520  0.3297E+01  0.2819E+02
   5.530  0.3292E+01  0.2822E+02
   5.540  0.3387E+01  0.2825E+02
   5.550  0.3335E+01  0.2829E+02
   5.560  0.3289E+01  0.2832E+02
   5.570  0.3195E+01  0.2835E+02
   5.580  0.3213E+01  0.2839E+02
   5.590  0.3185E+01  0.2842E+02
   5.600  0.3155E+01  0.2845E+02
   5.610  0.3171E+01  0.2848E+02
   5.620  0.3190E+01  0.2851E+02
   5.630  0.3181E+01  0.2855E+02
   5.640  0.3181E+01  0.2858E+02
   5.650  0.3190E+01  0.2861E+02
   5.660  0.3184E+01  0.2864E+02
   5.670  0.3199E+01  0.2867E+02
   5.680  0.3270E+01  0.2870E+02
   5.690  0.3339E+01  0.2874E+02
   5.700  0.3261E+01  0.2877E+02
   5.710  0.3302E+01  0.2880E+02
   5.720  0.3501E+01  0.2884E+02
   5.730  0.3724E+01  0.2887E+02
   5.740  0.4053E+01  0.2891E+02
   5.750  0.4278E+01  0.2895E+02
   5.760  0.4445E+01  0.2900E+02
   5.770  0.4527E+01  0.2904E+02
   5.780  0.4446E+01  0.2909E+02
   5.790  0.4780E+01  0.2913E+02
   5.800  0.5037E+01  0.2918E+02
   5.810  0.4923E+01  0.2923E+02
   5.820  0.4590E+01  0.2928E+02
   5.830  0.4616E+01  0.2932E+02
   5.840  0.4473E+01  0.2937E+02
   5.850  0.4443E+01  0.2941E+02
   5.860  0.4407E+01  0.2946E+02
   5.870  0.4343E+01  0.2950E+02
   5.880  0.4344E+01  0.2955E+02
   5.890  0.4271E+01  0.2959E+02
   5.900  0.4228E+01  0.2963E+02
   5.910  0.4189E+01  0.2967E+02
   5.920  0.4182E+01  0.2971E+02
   5.930  0.4194E+01  0.2976E+02
   5.940  0.4201E+01  0.2980E+02
   5.950  0.4248E+01  0.2984E+02
   5.960  0.4337E+01  0.2988E+02
   5.970  0.4605E+01  0.2993E+02
   5.980  0.4411E+01  0.2997E+02
   5.990  0.4334E+01  0.3002E+02
   6.000  0.4304E+01  0.3006E+02
   6.010  0.4254E+01  0.3010E+02
   6.020  0.4223E+01  0.3015E+02
   6.030  0.4233E+01  0.3019E+02
   6.040  0.4279E+01  0.3023E+02
   6.050  0.4299E+01  0.3027E+02
   6.060  0.4357E+01  0.3032E+02
   6.070  0.4388E+01  0.3036E+02
   6.080  0.4348E+01  0.3041E+02
   6.090  0.3960E+01  0.3045E+02
   6.100  0.3855E+01  0.3049E+02
   6.110  0.3844E+01  0.3052E+02
   6.120  0.3822E+01  0.3056E+02
   6.130  0.3832E+01  0.3060E+02
   6.140  0.3835E+01  0.3064E+02
   6.150  0.3848E+01  0.3068E+02
   6.160  0.3856E+01  0.3072E+02
   6.170  0.3911E+01  0.3075E+02
   6.180  0.3954E+01  0.3079E+02
   6.190  0.3874E+01  0.3083E+02
   6.200  0.3862E+01  0.3087E+02
   6.210  0.3866E+01  0.3091E+02
   6.220  0.3943E+01  0.3095E+02
   6.230  0.3884E+01  0.3099E+02
   6.240  0.3989E+01  0.3103E+02
   6.250  0.4095E+01  0.3107E+02
   6.260  0.3948E+01  0.3111E+02
   6.270  0.3938E+01  0.3115E+02
   6.280  0.3954E+01  0.3119E+02
   6.290  0.3958E+01  0.3123E+02
   6.300  0.3958E+01  0.3127E+02
   6.310  0.3991E+01  0.3131E+02
   6.320  0.4141E+01  0.3135E+02
   6.330  0.4092E+01  0.3139E+02
   6.340  0.4054E+01  0.3143E+02
   6.350  0.4024E+01  0.3147E+02
   6.360  0.4374E+01  0.3151E+02
   6.370  0.4463E+01  0.3156E+02
   6.380  0.4544E+01  0.3160E+02
   6.390  0.4643E+01  0.3165E+02
   6.400  0.3952E+01  0.3169E+02
   6.410  0.4130E+01  0.3173E+02
   6.420  0.4286E+01  0.3177E+02
   6.430  0.4776E+01  0.3182E+02
   6.440  0.5916E+01  0.3187E+02
   6.450  0.6367E+01  0.3195E+02
   6.460  0.5085E+01  0.3201E+02
   6.470  0.4987E+01  0.3206E+02
   6.480  0.4739E+01  0.3210E+02
   6.490  0.4685E+01  0.3215E+02
   6.500  0.4604E+01  0.3220E+02
   6.510  0.4500E+01  0.3224E+02
   6.520  0.4470E+01  0.3229E+02
   6.530  0.4440E+01  0.3233E+02
   6.540  0.4415E+01  0.3238E+02
   6.550  0.4452E+01  0.3242E+02
   6.560  0.4471E+01  0.3247E+02
   6.570  0.4447E+01  0.3251E+02
   6.580  0.4420E+01  0.3256E+02
   6.590  0.4433E+01  0.3260E+02
   6.600  0.4366E+01  0.3264E+02
   6.610  0.4351E+01  0.3269E+02
   6.620  0.4371E+01  0.3273E+02
   6.630  0.4487E+01  0.3278E+02
   6.640  0.4628E+01  0.3282E+02
   6.650  0.4776E+01  0.3287E+02
   6.660  0.5471E+01  0.3292E+02
   6.670  0.5735E+01  0.3298E+02
   6.680  0.6170E+01  0.3303E+02
   6.690  0.6971E+01  0.3310E+02
   6.700  0.7475E+01  0.3317E+02
   6.710  0.8964E+01  0.3326E+02
   6.720  0.7713E+01  0.3334E+02
   6.730  0.5749E+01  0.3340E+02
   6.740  0.4052E+01  0.3346E+02
   6.750  0.3223E+01  0.3349E+02
   6.760  0.3717E+01  0.3353E+02
   6.770  0.3044E+01  0.3357E+02
   6.780  0.2762E+01  0.3360E+02
   6.790  0.2714E+01  0.3362E+02
   6.800  0.2658E+01  0.3365E+02
   6.810  0.2658E+01  0.3368E+02
   6.820  0.2688E+01  0.3370E+02
   6.830  0.2743E+01  0.3373E+02
   6.840  0.2802E+01  0.3376E+02
   6.850  0.2828E+01  0.3379E+02
   6.860  0.2921E+01  0.3381E+02
   6.870  0.3010E+01  0.3384E+02
   6.880  0.3117E+01  0.3387E+02
   6.890  0.3233E+01  0.3391E+02
   6.900  0.3658E+01  0.3394E+02
   6.910  0.5086E+01  0.3398E+02
   6.920  0.4982E+01  0.3404E+02
   6.930  0.5159E+01  0.3410E+02
   6.940  0.4542E+01  0.3414E+02
   6.950  0.4100E+01  0.3419E+02
   6.960  0.3770E+01  0.3423E+02
   6.970  0.3658E+01  0.3426E+02
   6.980  0.3713E+01  0.3430E+02
   6.990  0.3588E+01  0.3434E+02
   7.000  0.3698E+01  0.3437E+02
   7.010  0.3654E+01  0.3441E+02
   7.020  0.3580E+01  0.3445E+02
   7.030  0.3617E+01  0.3448E+02
   7.040  0.3614E+01  0.3452E+02
   7.050  0.3428E+01  0.3455E+02
   7.060  0.3135E+01  0.3459E+02
   7.070  0.3182E+01  0.3462E+02
   7.080  0.3239E+01  0.3465E+02
   7.090  0.3267E+01  0.3468E+02
   7.100  0.3245E+01  0.3471E+02
   7.110  0.3471E+01  0.3475E+02
   7.120  0.4601E+01  0.3479E+02
   7.130  0.4224E+01  0.3483E+02
   7.140  0.4334E+01  0.3487E+02
   7.150  0.7249E+01  0.3493E+02
   7.160  0.6867E+01  0.3499E+02
   7.170  0.8581E+01  0.3507E+02
   7.180  0.1114E+02  0.3516E+02
   7.190  0.8160E+01  0.3525E+02
   7.200  0.6787E+01  0.3533E+02
   7.210  0.5943E+01  0.3539E+02
   7.220  0.6093E+01  0.3545E+02
   7.230  0.5480E+01  0.3551E+02
   7.240  0.4465E+01  0.3556E+02
   7.250  0.4511E+01  0.3560E+02
   7.260  0.4591E+01  0.3565E+02
   7.270  0.4399E+01  0.3569E+02
   7.280  0.4265E+01  0.3574E+02
   7.290  0.4199E+01  0.3578E+02
   7.300  0.4148E+01  0.3582E+02
   7.310  0.3908E+01  0.3586E+02
   7.320  0.3757E+01  0.3590E+02
   7.330  0.3668E+01  0.3594E+02
   7.340  0.3735E+01  0.3597E+02
   7.350  0.3550E+01  0.3601E+02
   7.360  0.3449E+01  0.3605E+02
   7.370  0.3369E+01  0.3608E+02
   7.380  0.3319E+01  0.3611E+02
   7.390  0.3285E+01  0.3615E+02
   7.400  0.3217E+01  0.3618E+02
   7.410  0.3185E+01  0.3621E+02
   7.420  0.3264E+01  0.3624E+02
   7.430  0.3198E+01  0.3628E+02
   7.440  0.3157E+01  0.3631E+02
   7.450  0.3192E+01  0.3634E+02
   7.460  0.3143E+01  0.3637E+02
   7.470  0.3033E+01  0.3640E+02
   7.480  0.2955E+01  0.3643E+02
   7.490  0.2911E+01  0.3646E+02
   7.500  0.2872E+01  0.3649E+02
   7.510  0.2796E+01  0.3652E+02
   7.520  0.2646E+01  0.3655E+02
   7.530  0.2616E+01  0.3657E+02
   7.540  0.2613E+01  0.3660E+02
   7.550  0.2625E+01  0.3662E+02
   7.560  0.2616E+01  0.3665E+02
   7.570  0.2612E+01  0.3668E+02
   7.580  0.2619E+01  0.3670E+02
   7.590  0.2630E+01  0.3673E+02
   7.600  0.2714E+01  0.3676E+02
   7.610  0.2807E+01  0.3678E+02
   7.620  0.2844E+01  0.3681E+02
   7.630  0.2858E+01  0.3684E+02
   7.640  0.2858E+01  0.3687E+02
   7.650  0.2855E+01  0.3690E+02
   7.660  0.2941E+01  0.3693E+02
   7.670  0.2842E+01  0.3696E+02
   7.680  0.2882E+01  0.3698E+02
   7.690  0.2822E+01  0.3701E+02
   7.700  0.2813E+01  0.3704E+02
   7.710  0.2784E+01  0.3707E+02
   7.720  0.2749E+01  0.3710E+02
   7.730  0.2767E+01  0.3712E+02
   7.740  0.2843E+01  0.3715E+02
   7.750  0.2961E+01  0.3718E+02
   7.760  0.3180E+01  0.3721E+02
   7.770  0.3300E+01  0.3724E+02
   7.780  0.3416E+01  0.3728E+02
   7.790  0.3390E+01  0.3731E+02
   7.800  0.3383E+01  0.3735E+02
   7.810  0.3446E+01  0.3738E+02
   7.820  0.3365E+01  0.3742E+02
   7.830  0.3344E+01  0.3745E+02
   7.840  0.3095E+01  0.3748E+02
   7.850  0.3152E+01  0.3751E+02
   7.860  0.3225E+01  0.3754E+02
   7.870  0.3297E+01  0.3758E+02
   7.880  0.3482E+01  0.3761E+02
   7.890  0.4591E+01  0.3765E+02
   7.900  0.4493E+01  0.3769E+02
   7.910  0.4416E+01  0.3774E+02
   7.920  0.4696E+01  0.3778E+02
   7.930  0.4524E+01  0.3783E+02
   7.940  0.4545E+01  0.3788E+02
   7.950  0.4235E+01  0.3792E+02
   7.960  0.4304E+01  0.3796E+02
   7.970  0.4210E+01  0.3801E+02
   7.980  0.4190E+01  0.3805E+02
   7.990  0.4153E+01  0.3809E+02
   8.000  0.4198E+01  0.3813E+02
   8.010  0.4305E+01  0.3818E+02
   8.020  0.4362E+01  0.3822E+02
   8.030  0.4398E+01  0.3826E+02
   8.040  0.4489E+01  0.3831E+02
   8.050  0.4656E+01  0.3836E+02
   8.060  0.4683E+01  0.3840E+02
   8.070  0.4774E+01  0.3845E+02
   8.080  0.6195E+01  0.3850E+02
   8.090  0.4756E+01  0.3855E+02
   8.100  0.4728E+01  0.3860E+02
   8.110  0.4500E+01  0.3864E+02
   8.120  0.4478E+01  0.3869E+02
   8.130  0.4444E+01  0.3873E+02
   8.140  0.4406E+01  0.3878E+02
   8.150  0.4351E+01  0.3882E+02
   8.160  0.4361E+01  0.3887E+02
   8.170  0.4740E+01  0.3891E+02
   8.180  0.4757E+01  0.3896E+02
   8.190  0.4728E+01  0.3901E+02
   8.200  0.4811E+01  0.3905E+02
   8.210  0.4889E+01  0.3910E+02
   8.220  0.4920E+01  0.3915E+02
   8.230  0.4864E+01  0.3920E+02
   8.240  0.4923E+01  0.3925E+02
   8.250  0.5109E+01  0.3930E+02
   8.260  0.5169E+01  0.3935E+02
   8.270  0.5523E+01  0.3940E+02
   8.280  0.5574E+01  0.3946E+02
   8.290  0.5534E+01  0.3952E+02
   8.300  0.5410E+01  0.3957E+02
   8.310  0.6417E+01  0.3963E+02
   8.320  0.9248E+01  0.3972E+02
   8.330  0.7444E+01  0.3980E+02
   8.340  0.6495E+01  0.3987E+02
   8.350  0.5722E+01  0.3993E+02
   8.360  0.5329E+01  0.3999E+02
   8.370  0.5061E+01  0.4004E+02
   8.380  0.4718E+01  0.4009E+02
   8.390  0.4419E+01  0.4013E+02
   8.400  0.4303E+01  0.4018E+02
   8.410  0.4067E+01  0.4022E+02
   8.420  0.3684E+01  0.4026E+02
   8.430  0.3626E+01  0.4029E+02
   8.440  0.3621E+01  0.4033E+02
   8.450  0.3716E+01  0.4037E+02
   8.460  0.3669E+01  0.4040E+02
   8.470  0.3659E+01  0.4044E+02
   8.480  0.3778E+01  0.4048E+02
   8.490  0.3826E+01  0.4052E+02
   8.500  0.3574E+01  0.4055E+02
   8.510  0.3303E+01  0.4059E+02
   8.520  0.3173E+01  0.4062E+02
   8.530  0.3262E+01  0.4065E+02
   8.540  0.3495E+01  0.4069E+02
   8.550  0.3849E+01  0.4072E+02
   8.560  0.4054E+01  0.4076E+02
   8.570  0.4025E+01  0.4080E+02
   8.580  0.4102E+01  0.4084E+02
   8.590  0.3925E+01  0.4089E+02
   8.600  0.3827E+01  0.4092E+02
   8.610  0.3860E+01  0.4096E+02
   8.620  0.3839E+01  0.4100E+02
   8.630  0.3954E+01  0.4104E+02
   8.640  0.4186E+01  0.4108E+02
   8.650  0.3889E+01  0.4112E+02
   8.660  0.3609E+01  0.4116E+02
   8.670  0.3493E+01  0.4119E+02
   8.680  0.3395E+01  0.4123E+02
   8.690  0.3306E+01  0.4126E+02
   8.700  0.3323E+01  0.4129E+02
   8.710  0.3073E+01  0.4133E+02
   8.720  0.3033E+01  0.4136E+02
   8.730  0.3047E+01  0.4139E+02
   8.740  0.3000E+01  0.4142E+02
   8.750  0.3151E+01  0.4145E+02
   8.760  0.3129E+01  0.4148E+02
   8.770  0.3005E+01  0.4151E+02
   8.780  0.2907E+01  0.4154E+02
   8.790  0.2941E+01  0.4157E+02
   8.800  0.3181E+01  0.4160E+02
   8.810  0.3268E+01  0.4163E+02
   8.820  0.3231E+01  0.4167E+02
   8.830  0.3057E+01  0.4170E+02
   8.840  0.3067E+01  0.4173E+02
   8.850  0.3501E+01  0.4176E+02
   8.860  0.3772E+01  0.4180E+02
   8.870  0.3676E+01  0.4183E+02
   8.880  0.3897E+01  0.4187E+02
   8.890  0.3879E+01  0.4191E+02
   8.900  0.4037E+01  0.4195E+02
   8.910  0.3918E+01  0.4199E+02
   8.920  0.4022E+01  0.4203E+02
   8.930  0.4121E+01  0.4207E+02
   8.940  0.4035E+01  0.4211E+02
   8.950  0.3994E+01  0.4215E+02
   8.960  0.4208E+01  0.4219E+02
   8.970  0.4127E+01  0.4224E+02
   8.980  0.4060E+01  0.4228E+02
   8.990  0.4211E+01  0.4232E+02
   9.000  0.3795E+01  0.4236E+02
   9.010  0.3642E+01  0.4240E+02
   9.020  0.3529E+01  0.4243E+02
   9.030  0.3491E+01  0.4247E+02
   9.040  0.3442E+01  0.4250E+02
   9.050  0.3420E+01  0.4254E+02
   9.060  0.3596E+01  0.4257E+02
   9.070  0.3159E+01  0.4260E+02
   9.080  0.3106E+01  0.4263E+02
   9.090  0.3124E+01  0.4267E+02
   9.100  0.3099E+01  0.4270E+02
   9.110  0.3069E+01  0.4273E+02
   9.120  0.3135E+01  0.4276E+02
   9.130  0.3034E+01  0.4279E+02
   9.140  0.3055E+01  0.4282E+02
   9.150  0.3065E+01  0.4285E+02
   9.160  0.3082E+01  0.4288E+02
   9.170  0.3112E+01  0.4291E+02
   9.180  0.3213E+01  0.4295E+02
   9.190  0.3250E+01  0.4298E+02
   9.200  0.3284E+01  0.4301E+02
   9.210  0.3322E+01  0.4304E+02
   9.220  0.3444E+01  0.4308E+02
   9.230  0.3469E+01  0.4311E+02
   9.240  0.3644E+01  0.4315E+02
   9.250  0.3895E+01  0.4319E+02
   9.260  0.3942E+01  0.4323E+02
   9.270  0.3998E+01  0.4327E+02
   9.280  0.4167E+01  0.4331E+02
   9.290  0.4243E+01  0.4335E+02
   9.300  0.4183E+01  0.4339E+02
   9.310  0.4059E+01  0.4343E+02
   9.320  0.3983E+01  0.4347E+02
   9.330  0.4033E+01  0.4351E+02
   9.340  0.4381E+01  0.4356E+02
   9.350  0.4298E+01  0.4360E+02
   9.360  0.4493E+01  0.4364E+02
   9.370  0.5373E+01  0.4369E+02
   9.380  0.5900E+01  0.4375E+02
   9.390  0.6051E+01  0.4381E+02
   9.400  0.5294E+01  0.4387E+02
   9.410  0.5055E+01  0.4392E+02
   9.420  0.5122E+01  0.4397E+02
   9.430  0.5197E+01  0.4402E+02
   9.440  0.5154E+01  0.4407E+02
   9.450  0.4909E+01  0.4412E+02
   9.460  0.4891E+01  0.4417E+02
   9.470  0.4868E+01  0.4422E+02
   9.480  0.4652E+01  0.4427E+02
   9.490  0.4584E+01  0.4431E+02
   9.500  0.4568E+01  0.4436E+02
   9.510  0.4600E+01  0.4441E+02
   9.520  0.5073E+01  0.4445E+02
   9.530  0.4784E+01  0.4450E+02
   9.540  0.5114E+01  0.4455E+02
   9.550  0.5735E+01  0.4460E+02
   9.560  0.5434E+01  0.4466E+02
   9.570  0.5151E+01  0.4471E+02
   9.580  0.5688E+01  0.4477E+02
   9.590  0.4596E+01  0.4482E+02
   9.600  0.4134E+01  0.4486E+02
   9.610  0.3768E+01  0.4490E+02
   9.620  0.3185E+01  0.4494E+02
   9.630  0.3397E+01  0.4497E+02
   9.640  0.3365E+01  0.4501E+02
   9.650  0.3526E+01  0.4504E+02
   9.660  0.3565E+01  0.4507E+02
   9.670  0.3782E+01  0.4511E+02
   9.680  0.3838E+01  0.4515E+02
   9.690  0.3615E+01  0.4519E+02
   9.700  0.3620E+01  0.4522E+02
   9.710  0.3622E+01  0.4526E+02
   9.720  0.3655E+01  0.4530E+02
   9.730  0.3806E+01  0.4533E+02
   9.740  0.3419E+01  0.4537E+02
   9.750  0.3206E+01  0.4540E+02
   9.760  0.3184E+01  0.4544E+02
   9.770  0.3710E+01  0.4547E+02
   9.780  0.2510E+01  0.4550E+02
   9.790  0.2598E+01  0.4552E+02
   9.800  0.2691E+01  0.4555E+02
   9.810  0.2865E+01  0.4558E+02
   9.820  0.3045E+01  0.4561E+02
   9.830  0.3053E+01  0.4564E+02
   9.840  0.2933E+01  0.4567E+02
   9.850  0.3009E+01  0.4570E+02
   9.860  0.2934E+01  0.4573E+02
   9.870  0.2847E+01  0.4575E+02
   9.880  0.2829E+01  0.4578E+02
   9.890  0.2838E+01  0.4581E+02
   9.900  0.2790E+01  0.4584E+02
   9.910  0.2995E+01  0.4587E+02
   9.920  0.3047E+01  0.4590E+02
   9.930  0.3205E+01  0.4593E+02
   9.940  0.2955E+01  0.4597E+02
   9.950  0.2888E+01  0.4599E+02
   9.960  0.2938E+01  0.4602E+02
   9.970  0.2781E+01  0.4605E+02
   9.980  0.2745E+01  0.4608E+02
   9.990  0.2700E+01  0.4611E+02
  10.000  0.2804E+01  0.4613E+02
  10.010  0.3058E+01  0.4616E+02
  10.020  0.3239E+01  0.4620E+02
  10.030  0.3298E+01  0.4623E+02
  10.040  0.3308E+01  0.4626E+02
  10.050  0.3332E+01  0.4629E+02
  10.060  0.3391E+01  0.4633E+02
  10.070  0.3402E+01  0.4636E+02
  10.080  0.3351E+01  0.4640E+02
  10.090  0.3451E+01  0.4643E+02
  10.100  0.3519E+01  0.4646E+02
  10.110  0.3443E+01  0.4650E+02
  10.120  0.3503E+01  0.4653E+02
  10.130  0.3509E+01  0.4657E+02
  10.140  0.3515E+01  0.4660E+02
  10.150  0.3523E+01  0.4664E+02
  10.160  0.3541E+01  0.4668E+02
  10.170  0.3581E+01  0.4671E+02
  10.180  0.3657E+01  0.4675E+02
  10.190  0.4415E+01  0.4679E+02
  10.200  0.3985E+01  0.4683E+02
  10.210  0.3967E+01  0.4687E+02
  10.220  0.4068E+01  0.4691E+02
  10.230  0.4196E+01  0.4695E+02
  10.240  0.4056E+01  0.4699E+02
  10.250  0.4605E+01  0.4703E+02
  10.260  0.4673E+01  0.4708E+02
  10.270  0.4662E+01  0.4713E+02
  10.280  0.4004E+01  0.4717E+02
  10.290  0.4098E+01  0.4721E+02
  10.300  0.4183E+01  0.4725E+02
  10.310  0.4174E+01  0.4730E+02
  10.320  0.4558E+01  0.4734E+02
  10.330  0.5121E+01  0.4739E+02
  10.340  0.5368E+01  0.4744E+02
  10.350  0.5237E+01  0.4749E+02
  10.360  0.5931E+01  0.4755E+02
  10.370  0.4332E+01  0.4760E+02
  10.380  0.4259E+01  0.4764E+02
  10.390  0.4742E+01  0.4768E+02
  10.400  0.5462E+01  0.4774E+02
  10.410  0.5937E+01  0.4779E+02
  10.420  0.6983E+01  0.4786E+02
  10.430  0.7111E+01  0.4792E+02
  10.440  0.7195E+01  0.4799E+02
  10.450  0.7505E+01  0.4807E+02
  10.460  0.7227E+01  0.4814E+02
  10.470  0.6450E+01  0.4821E+02
  10.480  0.7857E+01  0.4828E+02
  10.490  0.6756E+01  0.4835E+02
  10.500  0.6609E+01  0.4842E+02
  10.510  0.5640E+01  0.4847E+02
  10.520  0.5629E+01  0.4853E+02
  10.530  0.5610E+01  0.4859E+02
  10.540  0.5593E+01  0.4864E+02
  10.550  0.5605E+01  0.4870E+02
  10.560  0.5527E+01  0.4875E+02
  10.570  0.5765E+01  0.4881E+02
  10.580  0.5726E+01  0.4887E+02
  10.590  0.5897E+01  0.4893E+02
  10.600  0.6946E+01  0.4899E+02
  10.610  0.6240E+01  0.4906E+02
  10.620  0.5971E+01  0.4912E+02
  10.630  0.5180E+01  0.4917E+02
  10.640  0.4409E+01  0.4922E+02
  10.650  0.3785E+01  0.4926E+02
  10.660  0.3601E+01  0.4930E+02
  10.670  0.3591E+01  0.4934E+02
  10.680  0.3824E+01  0.4937E+02
  10.690  0.4002E+01  0.4941E+02
  10.700  0.4002E+01  0.4945E+02
  10.710  0.4022E+01  0.4949E+02
  10.720  0.4191E+01  0.4953E+02
  10.730  0.4164E+01  0.4957E+02
  10.740  0.4256E+01  0.4962E+02
  10.750  0.4655E+01  0.4966E+02
  10.760  0.4782E+01  0.4971E+02
  10.770  0.4508E+01  0.4976E+02
  10.780  0.4631E+01  0.4980E+02
  10.790  0.4592E+01  0.4985E+02
  10.800  0.4534E+01  0.4989E+02
  10.810  0.4431E+01  0.4994E+02
  10.820  0.4357E+01  0.4998E+02
  10.830  0.4317E+01  0.5003E+02
  10.840  0.4261E+01  0.5007E+02
  10.850  0.4264E+01  0.5011E+02
  10.860  0.4377E+01  0.5015E+02
  10.870  0.4254E+01  0.5020E+02
  10.880  0.4170E+01  0.5024E+02
  10.890  0.4327E+01  0.5028E+02
  10.900  0.4572E+01  0.5033E+02
  10.910  0.4623E+01  0.5037E+02
  10.920  0.4729E+01  0.5042E+02
  10.930  0.4778E+01  0.5047E+02
  10.940  0.4773E+01  0.5051E+02
  10.950  0.4809E+01  0.5056E+02
  10.960  0.5033E+01  0.5061E+02
  10.970  0.5342E+01  0.5066E+02
  10.980  0.5458E+01  0.5072E+02
  10.990  0.5218E+01  0.5077E+02
  11.000  0.4884E+01  0.5082E+02
  11.010  0.4507E+01  0.5087E+02
  11.020  0.4402E+01  0.5091E+02
  11.030  0.4342E+01  0.5095E+02
  11.040  0.4415E+01  0.5100E+02
  11.050  0.4514E+01  0.5104E+02
  11.060  0.4640E+01  0.5109E+02
  11.070  0.7402E+01  0.5115E+02
  11.080  0.5663E+01  0.5121E+02
  11.090  0.5257E+01  0.5127E+02
  11.100  0.5147E+01  0.5132E+02
  11.110  0.5353E+01  0.5137E+02
  11.120  0.5619E+01  0.5142E+02
  11.130  0.5470E+01  0.5148E+02
  11.140  0.5638E+01  0.5154E+02
  11.150  0.5666E+01  0.5159E+02
  11.160  0.6072E+01  0.5165E+02
  11.170  0.5534E+01  0.5171E+02
  11.180  0.5530E+01  0.5176E+02
  11.190  0.6149E+01  0.5182E+02
  11.200  0.5862E+01  0.5188E+02
  11.210  0.6431E+01  0.5194E+02
  11.220  0.6995E+01  0.5202E+02
  11.230  0.7832E+01  0.5209E+02
  11.240  0.7240E+01  0.5217E+02
  11.250  0.6927E+01  0.5224E+02
  11.260  0.5664E+01  0.5230E+02
  11.270  0.5544E+01  0.5236E+02
  11.280  0.5326E+01  0.5241E+02
  11.290  0.5725E+01  0.5247E+02
  11.300  0.6127E+01  0.5253E+02
  11.310  0.6528E+01  0.5259E+02
  11.320  0.6861E+01  0.5266E+02
  11.330  0.6419E+01  0.5273E+02
  11.340  0.6452E+01  0.5279E+02
  11.350  0.6278E+01  0.5285E+02
  11.360  0.5510E+01  0.5292E+02
  11.370  0.4697E+01  0.5297E+02
  11.380  0.4555E+01  0.5301E+02
  11.390  0.4607E+01  0.5306E+02
  11.400  0.4639E+01  0.5311E+02
  11.410  0.4658E+01  0.5315E+02
  11.420  0.4657E+01  0.5320E+02
  11.430  0.4766E+01  0.5325E+02
  11.440  0.4882E+01  0.5330E+02
  11.450  0.4898E+01  0.5334E+02
  11.460  0.5055E+01  0.5339E+02
  11.470  0.5242E+01  0.5344E+02
  11.480  0.5131E+01  0.5350E+02
  11.490  0.5318E+01  0.5355E+02
  11.500  0.5245E+01  0.5360E+02
  11.510  0.5150E+01  0.5365E+02
  11.520  0.5177E+01  0.5371E+02
  11.530  0.5615E+01  0.5376E+02
  11.540  0.5266E+01  0.5382E+02
  11.550  0.5248E+01  0.5387E+02
  11.560  0.5430E+01  0.5392E+02
  11.570  0.5491E+01  0.5398E+02
  11.580  0.5448E+01  0.5403E+02
  11.590  0.5498E+01  0.5409E+02
  11.600  0.5282E+01  0.5414E+02
  11.610  0.5152E+01  0.5419E+02
  11.620  0.5156E+01  0.5424E+02
  11.630  0.5244E+01  0.5429E+02
  11.640  0.5633E+01  0.5435E+02
  11.650  0.5675E+01  0.5440E+02
  11.660  0.5201E+01  0.5446E+02
  11.670  0.4941E+01  0.5451E+02
  11.680  0.5061E+01  0.5456E+02
  11.690  0.5204E+01  0.5461E+02
  11.700  0.5153E+01  0.5466E+02
  11.710  0.4286E+01  0.5471E+02
  11.720  0.4417E+01  0.5475E+02
  11.730  0.4331E+01  0.5479E+02
  11.740  0.4196E+01  0.5483E+02
  11.750  0.4115E+01  0.5488E+02
  11.760  0.4002E+01  0.5492E+02
  11.770  0.3949E+01  0.5496E+02
  11.780  0.3932E+01  0.5500E+02
  11.790  0.3881E+01  0.5503E+02
  11.800  0.3858E+01  0.5507E+02
  11.810  0.3860E+01  0.5511E+02
  11.820  0.3881E+01  0.5515E+02
  11.830  0.4165E+01  0.5519E+02
  11.840  0.4155E+01  0.5523E+02
  11.850  0.4180E+01  0.5527E+02
  11.860  0.4306E+01  0.5532E+02
  11.870  0.4487E+01  0.5536E+02
  11.880  0.4578E+01  0.5541E+02
  11.890  0.4510E+01  0.5545E+02
  11.900  0.4405E+01  0.5550E+02
  11.910  0.4475E+01  0.5554E+02
  11.920  0.4286E+01  0.5559E+02
  11.930  0.4259E+01  0.5563E+02
  11.940  0.4216E+01  0.5567E+02
  11.950  0.4305E+01  0.5572E+02
  11.960  0.4392E+01  0.5576E+02
  11.970  0.4100E+01  0.5580E+02
  11.980  0.4196E+01  0.5584E+02
  11.990  0.4463E+01  0.5589E+02
  12.000  0.4889E+01  0.5593E+02
  12.010  0.4843E+01  0.5598E+02
  12.020  0.4889E+01  0.5603E+02
  12.030  0.4980E+01  0.5608E+02
  12.040  0.5157E+01  0.5613E+02
  12.050  0.5368E+01  0.5618E+02
  12.060  0.4994E+01  0.5623E+02
  12.070  0.5090E+01  0.5628E+02
  12.080  0.5036E+01  0.5633E+02
  12.090  0.5015E+01  0.5639E+02
  12.100  0.5439E+01  0.5644E+02
  12.110  0.5631E+01  0.5649E+02
  12.120  0.5583E+01  0.5655E+02
  12.130  0.5694E+01  0.5661E+02
  12.140  0.6211E+01  0.5666E+02
  12.150  0.6614E+01  0.5673E+02
  12.160  0.6830E+01  0.5680E+02
  12.170  0.6982E+01  0.5686E+02
  12.180  0.7231E+01  0.5693E+02
  12.190  0.7238E+01  0.5701E+02
  12.200  0.6854E+01  0.5708E+02
  12.210  0.6150E+01  0.5714E+02
  12.220  0.5786E+01  0.5720E+02
  12.230  0.5894E+01  0.5726E+02
  12.240  0.5761E+01  0.5732E+02
  12.250  0.5388E+01  0.5737E+02
  12.260  0.5259E+01  0.5743E+02
  12.270  0.5112E+01  0.5748E+02
  12.280  0.4975E+01  0.5753E+02
  12.290  0.4883E+01  0.5758E+02
  12.300  0.4792E+01  0.5763E+02
  12.310  0.4735E+01  0.5768E+02
  12.320  0.4681E+01  0.5772E+02
  12.330  0.4621E+01  0.5777E+02
  12.340  0.4693E+01  0.5782E+02
  12.350  0.4838E+01  0.5786E+02
  12.360  0.4657E+01  0.5791E+02
  12.370  0.4806E+01  0.5796E+02
  12.380  0.4652E+01  0.5801E+02
  12.390  0.4654E+01  0.5805E+02
  12.400  0.4465E+01  0.5810E+02
  12.410  0.4474E+01  0.5814E+02
  12.420  0.4358E+01  0.5819E+02
  12.430  0.4228E+01  0.5823E+02
  12.440  0.4270E+01  0.5827E+02
  12.450  0.4234E+01  0.5832E+02
  12.460  0.4222E+01  0.5836E+02
  12.470  0.4140E+01  0.5840E+02
  12.480  0.4144E+01  0.5844E+02
  12.490  0.4103E+01  0.5848E+02
  12.500  0.4138E+01  0.5852E+02
  12.510  0.4080E+01  0.5857E+02
  12.520  0.3982E+01  0.5861E+02
  12.530  0.3952E+01  0.5865E+02
  12.540  0.4110E+01  0.5869E+02
  12.550  0.4268E+01  0.5873E+02
  12.560  0.4070E+01  0.5877E+02
  12.570  0.3973E+01  0.5881E+02
  12.580  0.3954E+01  0.5885E+02
  12.590  0.3851E+01  0.5889E+02
  12.600  0.3896E+01  0.5893E+02
  12.610  0.3889E+01  0.5897E+02
  12.620  0.3885E+01  0.5901E+02
  12.630  0.3956E+01  0.5904E+02
  12.640  0.3912E+01  0.5908E+02
  12.650  0.3892E+01  0.5912E+02
  12.660  0.3935E+01  0.5916E+02
  12.670  0.4063E+01  0.5920E+02
  12.680  0.3956E+01  0.5924E+02
  12.690  0.3969E+01  0.5928E+02
  12.700  0.4032E+01  0.5932E+02
  12.710  0.4209E+01  0.5936E+02
  12.720  0.4216E+01  0.5941E+02
  12.730  0.3967E+01  0.5945E+02
  12.740  0.3915E+01  0.5949E+02
  12.750  0.3868E+01  0.5953E+02
  12.760  0.3847E+01  0.5956E+02
  12.770  0.3843E+01  0.5960E+02
  12.780  0.3885E+01  0.5964E+02
  12.790  0.3926E+01  0.5968E+02
  12.800  0.3984E+01  0.5972E+02
  12.810  0.4061E+01  0.5976E+02
  12.820  0.4183E+01  0.5980E+02
  12.830  0.4232E+01  0.5984E+02
  12.840  0.4377E+01  0.5989E+02
  12.850  0.4510E+01  0.5993E+02
  12.860  0.4493E+01  0.5998E+02
  12.870  0.4511E+01  0.6002E+02
  12.880  0.4513E+01  0.6007E+02
  12.890  0.4475E+01  0.6011E+02
  12.900  0.4455E+01  0.6016E+02
  12.910  0.4432E+01  0.6020E+02
  12.920  0.4496E+01  0.6025E+02
  12.930  0.4625E+01  0.6029E+02
  12.940  0.4404E+01  0.6034E+02
  12.950  0.4207E+01  0.6038E+02
  12.960  0.4053E+01  0.6042E+02
  12.970  0.4066E+01  0.6046E+02
  12.980  0.4241E+01  0.6050E+02
  12.990  0.4685E+01  0.6055E+02
  13.000  0.4729E+01  0.6060E+02
  13.010  0.4556E+01  0.6065E+02
  13.020  0.4514E+01  0.6069E+02
  13.030  0.4447E+01  0.6074E+02
  13.040  0.4689E+01  0.6078E+02
  13.050  0.4773E+01  0.6083E+02
  13.060  0.4949E+01  0.6088E+02
  13.070  0.5034E+01  0.6093E+02
  13.080  0.5044E+01  0.6098E+02
  13.090  0.4842E+01  0.6103E+02
  13.100  0.4712E+01  0.6107E+02
  13.110  0.4718E+01  0.6112E+02
  13.120  0.4657E+01  0.6117E+02
  13.130  0.4848E+01  0.6121E+02
  13.140  0.5193E+01  0.6127E+02
  13.150  0.5324E+01  0.6132E+02
  13.160  0.5581E+01  0.6137E+02
  13.170  0.5806E+01  0.6143E+02
  13.180  0.5782E+01  0.6149E+02
  13.190  0.5914E+01  0.6155E+02
  13.200  0.6123E+01  0.6161E+02
  13.210  0.6358E+01  0.6167E+02
  13.220  0.6505E+01  0.6173E+02
  13.230  0.6801E+01  0.6180E+02
  13.240  0.6668E+01  0.6187E+02
  13.250  0.6328E+01  0.6193E+02
  13.260  0.6786E+01  0.6200E+02
  13.270  0.7841E+01  0.6207E+02
  13.280  0.6406E+01  0.6214E+02
  13.290  0.6232E+01  0.6221E+02
  13.300  0.6117E+01  0.6227E+02
  13.310  0.5602E+01  0.6233E+02
  13.320  0.5521E+01  0.6238E+02
  13.330  0.5587E+01  0.6244E+02
  13.340  0.5503E+01  0.6249E+02
  13.350  0.5488E+01  0.6255E+02
  13.360  0.5468E+01  0.6260E+02
  13.370  0.5427E+01  0.6266E+02
  13.380  0.5225E+01  0.6271E+02
  13.390  0.5414E+01  0.6276E+02
  13.400  0.4980E+01  0.6282E+02
  13.410  0.5238E+01  0.6287E+02
  13.420  0.5458E+01  0.6292E+02
  13.430  0.5228E+01  0.6297E+02
  13.440  0.5200E+01  0.6302E+02
  13.450  0.5317E+01  0.6308E+02
  13.460  0.4927E+01  0.6313E+02
  13.470  0.5215E+01  0.6318E+02
  13.480  0.4818E+01  0.6323E+02
  13.490  0.4937E+01  0.6328E+02
  13.500  0.4707E+01  0.6332E+02
  13.510  0.4651E+01  0.6337E+02
  13.520  0.4589E+01  0.6342E+02
  13.530  0.4830E+01  0.6346E+02
  13.540  0.4946E+01  0.6351E+02
  13.550  0.5115E+01  0.6356E+02
  13.560  0.5077E+01  0.6361E+02
  13.570  0.5130E+01  0.6367E+02
  13.580  0.5004E+01  0.6372E+02
  13.590  0.4543E+01  0.6376E+02
  13.600  0.4208E+01  0.6381E+02
  13.610  0.4102E+01  0.6385E+02
  13.620  0.4501E+01  0.6389E+02
  13.630  0.3975E+01  0.6393E+02
  13.640  0.3947E+01  0.6397E+02
  13.650  0.3966E+01  0.6401E+02
  13.660  0.3984E+01  0.6405E+02
  13.670  0.4173E+01  0.6409E+02
  13.680  0.4081E+01  0.6413E+02
  13.690  0.4117E+01  0.6417E+02
  13.700  0.4212E+01  0.6422E+02
  13.710  0.4371E+01  0.6426E+02
  13.720  0.4499E+01  0.6430E+02
  13.730  0.4575E+01  0.6435E+02
  13.740  0.4634E+01  0.6439E+02
  13.750  0.4526E+01  0.6444E+02
  13.760  0.4429E+01  0.6448E+02
  13.770  0.4296E+01  0.6453E+02
  13.780  0.4213E+01  0.6457E+02
  13.790  0.4148E+01  0.6461E+02
  13.800  0.4050E+01  0.6465E+02
  13.810  0.4101E+01  0.6469E+02
  13.820  0.4181E+01  0.6474E+02
  13.830  0.4314E+01  0.6478E+02
  13.840  0.4343E+01  0.6482E+02
  13.850  0.4383E+01  0.6487E+02
  13.860  0.4391E+01  0.6491E+02
  13.870  0.4266E+01  0.6495E+02
  13.880  0.4313E+01  0.6500E+02
  13.890  0.4433E+01  0.6504E+02
  13.900  0.4454E+01  0.6508E+02
  13.910  0.4545E+01  0.6513E+02
  13.920  0.4604E+01  0.6517E+02
  13.930  0.4726E+01  0.6522E+02
  13.940  0.4597E+01  0.6527E+02
  13.950  0.4613E+01  0.6531E+02
  13.960  0.4635E+01  0.6536E+02
  13.970  0.4729E+01  0.6541E+02
  13.980  0.5053E+01  0.6546E+02
  13.990  0.5303E+01  0.6551E+02
  14.000  0.5715E+01  0.6556E+02
  14.010  0.6112E+01  0.6562E+02
  14.020  0.6337E+01  0.6568E+02
  14.030  0.5822E+01  0.6574E+02
  14.040  0.5751E+01  0.6580E+02
  14.050  0.6036E+01  0.6586E+02
  14.060  0.5812E+01  0.6592E+02
  14.070  0.5498E+01  0.6598E+02
  14.080  0.5523E+01  0.6603E+02
  14.090  0.5941E+01  0.6609E+02
  14.100  0.6537E+01  0.6615E+02
  14.110  0.6228E+01  0.6622E+02
  14.120  0.6349E+01  0.6628E+02
  14.130  0.6446E+01  0.6634E+02
  14.140  0.6259E+01  0.6641E+02
  14.150  0.6032E+01  0.6647E+02
  14.160  0.5842E+01  0.6653E+02
  14.170  0.5281E+01  0.6658E+02
  14.180  0.5241E+01  0.6663E+02
  14.190  0.4829E+01  0.6668E+02
  14.200  0.4740E+01  0.6673E+02
  14.210  0.5188E+01  0.6678E+02
  14.220  0.4444E+01  0.6683E+02
  14.230  0.4333E+01  0.6687E+02
  14.240  0.4331E+01  0.6691E+02
  14.250  0.4385E+01  0.6696E+02
  14.260  0.4545E+01  0.6700E+02
  14.270  0.4587E+01  0.6705E+02
  14.280  0.4486E+01  0.6709E+02
  14.290  0.4381E+01  0.6714E+02
  14.300  0.4310E+01  0.6718E+02
  14.310  0.4448E+01  0.6722E+02
  14.320  0.4261E+01  0.6727E+02
  14.330  0.4235E+01  0.6731E+02
  14.340  0.4403E+01  0.6735E+02
  14.350  0.4314E+01  0.6740E+02
  14.360  0.4318E+01  0.6744E+02
  14.370  0.4294E+01  0.6748E+02
  14.380  0.4309E+01  0.6753E+02
  14.390  0.4347E+01  0.6757E+02
  14.400  0.4425E+01  0.6761E+02
  14.410  0.4482E+01  0.6766E+02
  14.420  0.4475E+01  0.6770E+02
  14.430  0.4438E+01  0.6775E+02
  14.440  0.4431E+01  0.6779E+02
  14.450  0.4538E+01  0.6784E+02
  14.460  0.4636E+01  0.6788E+02
  14.470  0.4589E+01  0.6793E+02
  14.480  0.4657E+01  0.6798E+02
  14.490  0.4762E+01  0.6802E+02
  14.500  0.5287E+01  0.6807E+02
  14.510  0.5757E+01  0.6813E+02
  14.520  0.6046E+01  0.6819E+02
  14.530  0.5932E+01  0.6825E+02
  14.540  0.5779E+01  0.6831E+02
  14.550  0.5394E+01  0.6836E+02
  14.560  0.5612E+01  0.6842E+02
  14.570  0.5596E+01  0.6848E+02
  14.580  0.5707E+01  0.6853E+02
  14.590  0.5754E+01  0.6859E+02
  14.600  0.5704E+01  0.6865E+02
  14.610  0.5668E+01  0.6870E+02
  14.620  0.5276E+01  0.6876E+02
  14.630  0.4933E+01  0.6881E+02
  14.640  0.4680E+01  0.6886E+02
  14.650  0.4502E+01  0.6890E+02
  14.660  0.4554E+01  0.6895E+02
  14.670  0.4639E+01  0.6900E+02
  14.680  0.4705E+01  0.6904E+02
  14.690  0.4867E+01  0.6909E+02
  14.700  0.4869E+01  0.6914E+02
  14.710  0.4912E+01  0.6919E+02
  14.720  0.5099E+01  0.6924E+02
  14.730  0.5358E+01  0.6929E+02
  14.740  0.6004E+01  0.6935E+02
  14.750  0.6492E+01  0.6941E+02
  14.760  0.6911E+01  0.6948E+02
  14.770  0.6804E+01  0.6955E+02
  14.780  0.5291E+01  0.6961E+02
  14.790  0.5137E+01  0.6966E+02
  14.800  0.5122E+01  0.6971E+02
  14.810  0.5039E+01  0.6976E+02
  14.820  0.4841E+01  0.6981E+02
  14.830  0.4813E+01  0.6986E+02
  14.840  0.4816E+01  0.6991E+02
  14.850  0.4845E+01  0.6996E+02
  14.860  0.5066E+01  0.7000E+02
  14.870  0.5151E+01  0.7006E+02
  14.880  0.5093E+01  0.7011E+02
  14.890  0.4934E+01  0.7016E+02
  14.900  0.4966E+01  0.7021E+02
  14.910  0.4998E+01  0.7026E+02
  14.920  0.4988E+01  0.7031E+02
  14.930  0.4956E+01  0.7036E+02
  14.940  0.4951E+01  0.7041E+02
  14.950  0.5027E+01  0.7046E+02
  14.960  0.4910E+01  0.7051E+02
  14.970  0.4957E+01  0.7056E+02
  14.980  0.5026E+01  0.7061E+02
  14.990  0.4837E+01  0.7065E+02
  15.000  0.4674E+01  0.7070E+02
