#  E (eV)   dos(E)     Int dos(E) EFermi =    6.345 eV
 -15.000  0.0000E+00  0.0000E+00
 -14.990  0.0000E+00  0.0000E+00
 -14.980  0.0000E+00  0.0000E+00
 -14.970  0.0000E+00  0.0000E+00
 -14.960  0.0000E+00  0.0000E+00
 -14.950  0.0000E+00  0.0000E+00
 -14.940  0.0000E+00  0.0000E+00
 -14.930  0.0000E+00  0.0000E+00
 -14.920  0.0000E+00  0.0000E+00
 -14.910  0.0000E+00  0.0000E+00
 -14.900  0.0000E+00  0.0000E+00
 -14.890  0.0000E+00  0.0000E+00
 -14.880  0.0000E+00  0.0000E+00
 -14.870  0.0000E+00  0.0000E+00
 -14.860  0.0000E+00  0.0000E+00
 -14.850  0.0000E+00  0.0000E+00
 -14.840  0.0000E+00  0.0000E+00
 -14.830  0.0000E+00  0.0000E+00
 -14.820  0.0000E+00  0.0000E+00
 -14.810  0.0000E+00  0.0000E+00
 -14.800  0.0000E+00  0.0000E+00
 -14.790  0.0000E+00  0.0000E+00
 -14.780  0.0000E+00  0.0000E+00
 -14.770  0.0000E+00  0.0000E+00
 -14.760  0.0000E+00  0.0000E+00
 -14.750  0.0000E+00  0.0000E+00
 -14.740  0.0000E+00  0.0000E+00
 -14.730  0.0000E+00  0.0000E+00
 -14.720  0.0000E+00  0.0000E+00
 -14.710  0.0000E+00  0.0000E+00
 -14.700  0.0000E+00  0.0000E+00
 -14.690  0.0000E+00  0.0000E+00
 -14.680  0.0000E+00  0.0000E+00
 -14.670  0.0000E+00  0.0000E+00
 -14.660  0.0000E+00  0.0000E+00
 -14.650  0.0000E+00  0.0000E+00
 -14.640  0.0000E+00  0.0000E+00
 -14.630  0.0000E+00  0.0000E+00
 -14.620  0.0000E+00  0.0000E+00
 -14.610  0.0000E+00  0.0000E+00
 -14.600  0.0000E+00  0.0000E+00
 -14.590  0.0000E+00  0.0000E+00
 -14.580  0.0000E+00  0.0000E+00
 -14.570  0.0000E+00  0.0000E+00
 -14.560  0.0000E+00  0.0000E+00
 -14.550  0.0000E+00  0.0000E+00
 -14.540  0.0000E+00  0.0000E+00
 -14.530  0.0000E+00  0.0000E+00
 -14.520  0.0000E+00  0.0000E+00
 -14.510  0.0000E+00  0.0000E+00
 -14.500  0.0000E+00  0.0000E+00
 -14.490  0.0000E+00  0.0000E+00
 -14.480  0.0000E+00  0.0000E+00
 -14.470  0.0000E+00  0.0000E+00
 -14.460  0.0000E+00  0.0000E+00
 -14.450  0.0000E+00  0.0000E+00
 -14.440  0.0000E+00  0.0000E+00
 -14.430  0.0000E+00  0.0000E+00
 -14.420  0.0000E+00  0.0000E+00
 -14.410  0.0000E+00  0.0000E+00
 -14.400  0.0000E+00  0.0000E+00
 -14.390  0.0000E+00  0.0000E+00
 -14.380  0.0000E+00  0.0000E+00
 -14.370  0.0000E+00  0.0000E+00
 -14.360  0.0000E+00  0.0000E+00
 -14.350  0.0000E+00  0.0000E+00
 -14.340  0.0000E+00  0.0000E+00
 -14.330  0.0000E+00  0.0000E+00
 -14.320  0.0000E+00  0.0000E+00
 -14.310  0.0000E+00  0.0000E+00
 -14.300  0.0000E+00  0.0000E+00
 -14.290  0.0000E+00  0.0000E+00
 -14.280  0.0000E+00  0.0000E+00
 -14.270  0.0000E+00  0.0000E+00
 -14.260  0.0000E+00  0.0000E+00
 -14.250  0.0000E+00  0.0000E+00
 -14.240  0.0000E+00  0.0000E+00
 -14.230  0.0000E+00  0.0000E+00
 -14.220  0.0000E+00  0.0000E+00
 -14.210  0.0000E+00  0.0000E+00
 -14.200  0.0000E+00  0.0000E+00
 -14.190  0.0000E+00  0.0000E+00
 -14.180  0.0000E+00  0.0000E+00
 -14.170  0.0000E+00  0.0000E+00
 -14.160  0.0000E+00  0.0000E+00
 -14.150  0.0000E+00  0.0000E+00
 -14.140  0.0000E+00  0.0000E+00
 -14.130  0.0000E+00  0.0000E+00
 -14.120  0.0000E+00  0.0000E+00
 -14.110  0.0000E+00  0.0000E+00
 -14.100  0.0000E+00  0.0000E+00
 -14.090  0.0000E+00  0.0000E+00
 -14.080  0.0000E+00  0.0000E+00
 -14.070  0.0000E+00  0.0000E+00
 -14.060  0.0000E+00  0.0000E+00
 -14.050  0.0000E+00  0.0000E+00
 -14.040  0.0000E+00  0.0000E+00
 -14.030  0.0000E+00  0.0000E+00
 -14.020  0.0000E+00  0.0000E+00
 -14.010  0.0000E+00  0.0000E+00
 -14.000  0.0000E+00  0.0000E+00
 -13.990  0.0000E+00  0.0000E+00
 -13.980  0.0000E+00  0.0000E+00
 -13.970  0.0000E+00  0.0000E+00
 -13.960  0.0000E+00  0.0000E+00
 -13.950  0.0000E+00  0.0000E+00
 -13.940  0.0000E+00  0.0000E+00
 -13.930  0.0000E+00  0.0000E+00
 -13.920  0.0000E+00  0.0000E+00
 -13.910  0.0000E+00  0.0000E+00
 -13.900  0.0000E+00  0.0000E+00
 -13.890  0.0000E+00  0.0000E+00
 -13.880  0.0000E+00  0.0000E+00
 -13.870  0.0000E+00  0.0000E+00
 -13.860  0.0000E+00  0.0000E+00
 -13.850  0.0000E+00  0.0000E+00
 -13.840  0.0000E+00  0.0000E+00
 -13.830  0.0000E+00  0.0000E+00
 -13.820  0.0000E+00  0.0000E+00
 -13.810  0.0000E+00  0.0000E+00
 -13.800  0.0000E+00  0.0000E+00
 -13.790  0.0000E+00  0.0000E+00
 -13.780  0.0000E+00  0.0000E+00
 -13.770  0.0000E+00  0.0000E+00
 -13.760  0.1229E+01  0.5268E-02
 -13.750  0.1355E+01  0.1835E-01
 -13.740  0.1367E+01  0.3156E-01
 -13.730  0.1352E+01  0.4477E-01
 -13.720  0.1328E+01  0.5828E-01
 -13.710  0.1397E+01  0.7190E-01
 -13.700  0.1944E+01  0.8644E-01
 -13.690  0.2790E+01  0.1120E+00
 -13.680  0.2750E+01  0.1394E+00
 -13.670  0.2784E+01  0.1673E+00
 -13.660  0.2803E+01  0.1954E+00
 -13.650  0.2894E+01  0.2236E+00
 -13.640  0.2837E+01  0.2523E+00
 -13.630  0.2926E+01  0.2812E+00
 -13.620  0.2936E+01  0.3105E+00
 -13.610  0.2983E+01  0.3400E+00
 -13.600  0.2993E+01  0.3698E+00
 -13.590  0.3053E+01  0.4000E+00
 -13.580  0.3047E+01  0.4306E+00
 -13.570  0.3109E+01  0.4613E+00
 -13.560  0.3163E+01  0.4927E+00
 -13.550  0.3159E+01  0.5243E+00
 -13.540  0.3224E+01  0.5562E+00
 -13.530  0.3279E+01  0.5888E+00
 -13.520  0.3287E+01  0.6215E+00
 -13.510  0.3360E+01  0.6547E+00
 -13.500  0.3406E+01  0.6886E+00
 -13.490  0.3431E+01  0.7228E+00
 -13.480  0.3500E+01  0.7573E+00
 -13.470  0.3550E+01  0.7927E+00
 -13.460  0.3596E+01  0.8284E+00
 -13.450  0.3650E+01  0.8646E+00
 -13.440  0.3727E+01  0.9015E+00
 -13.430  0.3763E+01  0.9390E+00
 -13.420  0.3846E+01  0.9771E+00
 -13.410  0.3910E+01  0.1016E+01
 -13.400  0.3991E+01  0.1055E+01
 -13.390  0.4049E+01  0.1096E+01
 -13.380  0.4150E+01  0.1137E+01
 -13.370  0.4220E+01  0.1178E+01
 -13.360  0.4309E+01  0.1221E+01
 -13.350  0.4411E+01  0.1265E+01
 -13.340  0.4501E+01  0.1309E+01
 -13.330  0.4617E+01  0.1355E+01
 -13.320  0.4720E+01  0.1401E+01
 -13.310  0.4856E+01  0.1449E+01
 -13.300  0.4970E+01  0.1498E+01
 -13.290  0.5127E+01  0.1549E+01
 -13.280  0.5272E+01  0.1601E+01
 -13.270  0.5436E+01  0.1655E+01
 -13.260  0.5632E+01  0.1710E+01
 -13.250  0.5807E+01  0.1767E+01
 -13.240  0.6041E+01  0.1826E+01
 -13.230  0.6294E+01  0.1888E+01
 -13.220  0.6544E+01  0.1952E+01
 -13.210  0.6867E+01  0.2019E+01
 -13.200  0.7236E+01  0.2090E+01
 -13.190  0.7646E+01  0.2164E+01
 -13.180  0.8165E+01  0.2243E+01
 -13.170  0.8753E+01  0.2327E+01
 -13.160  0.9491E+01  0.2418E+01
 -13.150  0.1066E+02  0.2519E+01
 -13.140  0.1241E+02  0.2633E+01
 -13.130  0.1564E+02  0.2783E+01
 -13.120  0.1278E+02  0.2920E+01
 -13.110  0.1257E+02  0.3047E+01
 -13.100  0.1353E+02  0.3176E+01
 -13.090  0.1735E+02  0.3320E+01
 -13.080  0.1308E+02  0.3476E+01
 -13.070  0.1155E+02  0.3599E+01
 -13.060  0.1073E+02  0.3709E+01
 -13.050  0.5604E+01  0.3806E+01
 -13.040  0.5178E+01  0.3860E+01
 -13.030  0.5068E+01  0.3911E+01
 -13.020  0.4655E+01  0.3958E+01
 -13.010  0.3102E+00  0.4000E+01
 -13.000  0.1668E+01  0.4011E+01
 -12.990  0.1635E+01  0.4027E+01
 -12.980  0.1684E+01  0.4044E+01
 -12.970  0.1700E+01  0.4061E+01
 -12.960  0.1725E+01  0.4078E+01
 -12.950  0.1776E+01  0.4096E+01
 -12.940  0.1772E+01  0.4114E+01
 -12.930  0.2960E+01  0.4135E+01
 -12.920  0.3540E+01  0.4169E+01
 -12.910  0.3623E+01  0.4205E+01
 -12.900  0.3692E+01  0.4242E+01
 -12.890  0.3766E+01  0.4279E+01
 -12.880  0.3826E+01  0.4317E+01
 -12.870  0.3858E+01  0.4356E+01
 -12.860  0.3941E+01  0.4395E+01
 -12.850  0.4010E+01  0.4434E+01
 -12.840  0.4072E+01  0.4475E+01
 -12.830  0.4160E+01  0.4516E+01
 -12.820  0.4225E+01  0.4558E+01
 -12.810  0.4321E+01  0.4601E+01
 -12.800  0.4423E+01  0.4645E+01
 -12.790  0.4482E+01  0.4689E+01
 -12.780  0.4606E+01  0.4735E+01
 -12.770  0.4693E+01  0.4781E+01
 -12.760  0.4824E+01  0.4829E+01
 -12.750  0.4924E+01  0.4877E+01
 -12.740  0.5052E+01  0.4927E+01
 -12.730  0.5181E+01  0.4978E+01
 -12.720  0.5320E+01  0.5031E+01
 -12.710  0.5480E+01  0.5085E+01
 -12.700  0.5639E+01  0.5140E+01
 -12.690  0.5822E+01  0.5198E+01
 -12.680  0.6008E+01  0.5257E+01
 -12.670  0.6226E+01  0.5318E+01
 -12.660  0.6448E+01  0.5381E+01
 -12.650  0.6700E+01  0.5447E+01
 -12.640  0.6987E+01  0.5515E+01
 -12.630  0.7295E+01  0.5587E+01
 -12.620  0.7656E+01  0.5662E+01
 -12.610  0.8057E+01  0.5740E+01
 -12.600  0.8550E+01  0.5823E+01
 -12.590  0.9090E+01  0.5911E+01
 -12.580  0.9779E+01  0.6005E+01
 -12.570  0.1056E+02  0.6107E+01
 -12.560  0.1169E+02  0.6218E+01
 -12.550  0.1318E+02  0.6341E+01
 -12.540  0.1626E+02  0.6487E+01
 -12.530  0.1800E+02  0.6681E+01
 -12.520  0.1593E+02  0.6845E+01
 -12.510  0.1542E+02  0.6999E+01
 -12.500  0.1569E+02  0.7155E+01
 -12.490  0.1849E+02  0.7325E+01
 -12.480  0.1818E+02  0.7534E+01
 -12.470  0.9300E+01  0.7681E+01
 -12.460  0.8188E+01  0.7768E+01
 -12.450  0.7499E+01  0.7846E+01
 -12.440  0.6640E+01  0.7917E+01
 -12.430  0.6414E+01  0.7983E+01
 -12.420  0.0000E+00  0.8000E+01
 -12.410  0.0000E+00  0.8000E+01
 -12.400  0.0000E+00  0.8000E+01
 -12.390  0.0000E+00  0.8000E+01
 -12.380  0.0000E+00  0.8000E+01
 -12.370  0.0000E+00  0.8000E+01
 -12.360  0.0000E+00  0.8000E+01
 -12.350  0.0000E+00  0.8000E+01
 -12.340  0.0000E+00  0.8000E+01
 -12.330  0.0000E+00  0.8000E+01
 -12.320  0.0000E+00  0.8000E+01
 -12.310  0.0000E+00  0.8000E+01
 -12.300  0.0000E+00  0.8000E+01
 -12.290  0.0000E+00  0.8000E+01
 -12.280  0.0000E+00  0.8000E+01
 -12.270  0.0000E+00  0.8000E+01
 -12.260  0.0000E+00  0.8000E+01
 -12.250  0.0000E+00  0.8000E+01
 -12.240  0.0000E+00  0.8000E+01
 -12.230  0.0000E+00  0.8000E+01
 -12.220  0.0000E+00  0.8000E+01
 -12.210  0.0000E+00  0.8000E+01
 -12.200  0.0000E+00  0.8000E+01
 -12.190  0.0000E+00  0.8000E+01
 -12.180  0.0000E+00  0.8000E+01
 -12.170  0.0000E+00  0.8000E+01
 -12.160  0.0000E+00  0.8000E+01
 -12.150  0.0000E+00  0.8000E+01
 -12.140  0.0000E+00  0.8000E+01
 -12.130  0.0000E+00  0.8000E+01
 -12.120  0.0000E+00  0.8000E+01
 -12.110  0.0000E+00  0.8000E+01
 -12.100  0.0000E+00  0.8000E+01
 -12.090  0.0000E+00  0.8000E+01
 -12.080  0.0000E+00  0.8000E+01
 -12.070  0.0000E+00  0.8000E+01
 -12.060  0.0000E+00  0.8000E+01
 -12.050  0.0000E+00  0.8000E+01
 -12.040  0.0000E+00  0.8000E+01
 -12.030  0.0000E+00  0.8000E+01
 -12.020  0.0000E+00  0.8000E+01
 -12.010  0.0000E+00  0.8000E+01
 -12.000  0.0000E+00  0.8000E+01
 -11.990  0.0000E+00  0.8000E+01
 -11.980  0.0000E+00  0.8000E+01
 -11.970  0.0000E+00  0.8000E+01
 -11.960  0.0000E+00  0.8000E+01
 -11.950  0.0000E+00  0.8000E+01
 -11.940  0.0000E+00  0.8000E+01
 -11.930  0.0000E+00  0.8000E+01
 -11.920  0.0000E+00  0.8000E+01
 -11.910  0.0000E+00  0.8000E+01
 -11.900  0.0000E+00  0.8000E+01
 -11.890  0.0000E+00  0.8000E+01
 -11.880  0.0000E+00  0.8000E+01
 -11.870  0.0000E+00  0.8000E+01
 -11.860  0.0000E+00  0.8000E+01
 -11.850  0.0000E+00  0.8000E+01
 -11.840  0.0000E+00  0.8000E+01
 -11.830  0.0000E+00  0.8000E+01
 -11.820  0.0000E+00  0.8000E+01
 -11.810  0.0000E+00  0.8000E+01
 -11.800  0.0000E+00  0.8000E+01
 -11.790  0.0000E+00  0.8000E+01
 -11.780  0.0000E+00  0.8000E+01
 -11.770  0.0000E+00  0.8000E+01
 -11.760  0.0000E+00  0.8000E+01
 -11.750  0.0000E+00  0.8000E+01
 -11.740  0.0000E+00  0.8000E+01
 -11.730  0.0000E+00  0.8000E+01
 -11.720  0.0000E+00  0.8000E+01
 -11.710  0.0000E+00  0.8000E+01
 -11.700  0.0000E+00  0.8000E+01
 -11.690  0.0000E+00  0.8000E+01
 -11.680  0.0000E+00  0.8000E+01
 -11.670  0.0000E+00  0.8000E+01
 -11.660  0.0000E+00  0.8000E+01
 -11.650  0.0000E+00  0.8000E+01
 -11.640  0.0000E+00  0.8000E+01
 -11.630  0.0000E+00  0.8000E+01
 -11.620  0.0000E+00  0.8000E+01
 -11.610  0.0000E+00  0.8000E+01
 -11.600  0.0000E+00  0.8000E+01
 -11.590  0.0000E+00  0.8000E+01
 -11.580  0.0000E+00  0.8000E+01
 -11.570  0.0000E+00  0.8000E+01
 -11.560  0.0000E+00  0.8000E+01
 -11.550  0.0000E+00  0.8000E+01
 -11.540  0.0000E+00  0.8000E+01
 -11.530  0.0000E+00  0.8000E+01
 -11.520  0.0000E+00  0.8000E+01
 -11.510  0.0000E+00  0.8000E+01
 -11.500  0.0000E+00  0.8000E+01
 -11.490  0.0000E+00  0.8000E+01
 -11.480  0.0000E+00  0.8000E+01
 -11.470  0.0000E+00  0.8000E+01
 -11.460  0.0000E+00  0.8000E+01
 -11.450  0.0000E+00  0.8000E+01
 -11.440  0.0000E+00  0.8000E+01
 -11.430  0.0000E+00  0.8000E+01
 -11.420  0.0000E+00  0.8000E+01
 -11.410  0.0000E+00  0.8000E+01
 -11.400  0.0000E+00  0.8000E+01
 -11.390  0.0000E+00  0.8000E+01
 -11.380  0.0000E+00  0.8000E+01
 -11.370  0.0000E+00  0.8000E+01
 -11.360  0.0000E+00  0.8000E+01
 -11.350  0.0000E+00  0.8000E+01
 -11.340  0.0000E+00  0.8000E+01
 -11.330  0.0000E+00  0.8000E+01
 -11.320  0.0000E+00  0.8000E+01
 -11.310  0.0000E+00  0.8000E+01
 -11.300  0.0000E+00  0.8000E+01
 -11.290  0.0000E+00  0.8000E+01
 -11.280  0.0000E+00  0.8000E+01
 -11.270  0.0000E+00  0.8000E+01
 -11.260  0.0000E+00  0.8000E+01
 -11.250  0.0000E+00  0.8000E+01
 -11.240  0.0000E+00  0.8000E+01
 -11.230  0.0000E+00  0.8000E+01
 -11.220  0.0000E+00  0.8000E+01
 -11.210  0.0000E+00  0.8000E+01
 -11.200  0.0000E+00  0.8000E+01
 -11.190  0.0000E+00  0.8000E+01
 -11.180  0.0000E+00  0.8000E+01
 -11.170  0.0000E+00  0.8000E+01
 -11.160  0.0000E+00  0.8000E+01
 -11.150  0.0000E+00  0.8000E+01
 -11.140  0.0000E+00  0.8000E+01
 -11.130  0.0000E+00  0.8000E+01
 -11.120  0.0000E+00  0.8000E+01
 -11.110  0.0000E+00  0.8000E+01
 -11.100  0.0000E+00  0.8000E+01
 -11.090  0.0000E+00  0.8000E+01
 -11.080  0.0000E+00  0.8000E+01
 -11.070  0.0000E+00  0.8000E+01
 -11.060  0.0000E+00  0.8000E+01
 -11.050  0.0000E+00  0.8000E+01
 -11.040  0.0000E+00  0.8000E+01
 -11.030  0.0000E+00  0.8000E+01
 -11.020  0.0000E+00  0.8000E+01
 -11.010  0.0000E+00  0.8000E+01
 -11.000  0.0000E+00  0.8000E+01
 -10.990  0.0000E+00  0.8000E+01
 -10.980  0.0000E+00  0.8000E+01
 -10.970  0.0000E+00  0.8000E+01
 -10.960  0.0000E+00  0.8000E+01
 -10.950  0.0000E+00  0.8000E+01
 -10.940  0.0000E+00  0.8000E+01
 -10.930  0.0000E+00  0.8000E+01
 -10.920  0.0000E+00  0.8000E+01
 -10.910  0.0000E+00  0.8000E+01
 -10.900  0.0000E+00  0.8000E+01
 -10.890  0.0000E+00  0.8000E+01
 -10.880  0.0000E+00  0.8000E+01
 -10.870  0.0000E+00  0.8000E+01
 -10.860  0.0000E+00  0.8000E+01
 -10.850  0.0000E+00  0.8000E+01
 -10.840  0.0000E+00  0.8000E+01
 -10.830  0.0000E+00  0.8000E+01
 -10.820  0.0000E+00  0.8000E+01
 -10.810  0.0000E+00  0.8000E+01
 -10.800  0.0000E+00  0.8000E+01
 -10.790  0.0000E+00  0.8000E+01
 -10.780  0.0000E+00  0.8000E+01
 -10.770  0.0000E+00  0.8000E+01
 -10.760  0.0000E+00  0.8000E+01
 -10.750  0.0000E+00  0.8000E+01
 -10.740  0.0000E+00  0.8000E+01
 -10.730  0.0000E+00  0.8000E+01
 -10.720  0.0000E+00  0.8000E+01
 -10.710  0.0000E+00  0.8000E+01
 -10.700  0.0000E+00  0.8000E+01
 -10.690  0.0000E+00  0.8000E+01
 -10.680  0.0000E+00  0.8000E+01
 -10.670  0.0000E+00  0.8000E+01
 -10.660  0.0000E+00  0.8000E+01
 -10.650  0.0000E+00  0.8000E+01
 -10.640  0.0000E+00  0.8000E+01
 -10.630  0.0000E+00  0.8000E+01
 -10.620  0.0000E+00  0.8000E+01
 -10.610  0.0000E+00  0.8000E+01
 -10.600  0.0000E+00  0.8000E+01
 -10.590  0.0000E+00  0.8000E+01
 -10.580  0.0000E+00  0.8000E+01
 -10.570  0.0000E+00  0.8000E+01
 -10.560  0.0000E+00  0.8000E+01
 -10.550  0.0000E+00  0.8000E+01
 -10.540  0.0000E+00  0.8000E+01
 -10.530  0.0000E+00  0.8000E+01
 -10.520  0.0000E+00  0.8000E+01
 -10.510  0.0000E+00  0.8000E+01
 -10.500  0.0000E+00  0.8000E+01
 -10.490  0.0000E+00  0.8000E+01
 -10.480  0.0000E+00  0.8000E+01
 -10.470  0.0000E+00  0.8000E+01
 -10.460  0.0000E+00  0.8000E+01
 -10.450  0.0000E+00  0.8000E+01
 -10.440  0.0000E+00  0.8000E+01
 -10.430  0.0000E+00  0.8000E+01
 -10.420  0.0000E+00  0.8000E+01
 -10.410  0.0000E+00  0.8000E+01
 -10.400  0.0000E+00  0.8000E+01
 -10.390  0.0000E+00  0.8000E+01
 -10.380  0.0000E+00  0.8000E+01
 -10.370  0.0000E+00  0.8000E+01
 -10.360  0.0000E+00  0.8000E+01
 -10.350  0.0000E+00  0.8000E+01
 -10.340  0.0000E+00  0.8000E+01
 -10.330  0.0000E+00  0.8000E+01
 -10.320  0.0000E+00  0.8000E+01
 -10.310  0.0000E+00  0.8000E+01
 -10.300  0.0000E+00  0.8000E+01
 -10.290  0.0000E+00  0.8000E+01
 -10.280  0.0000E+00  0.8000E+01
 -10.270  0.0000E+00  0.8000E+01
 -10.260  0.0000E+00  0.8000E+01
 -10.250  0.0000E+00  0.8000E+01
 -10.240  0.0000E+00  0.8000E+01
 -10.230  0.0000E+00  0.8000E+01
 -10.220  0.0000E+00  0.8000E+01
 -10.210  0.0000E+00  0.8000E+01
 -10.200  0.0000E+00  0.8000E+01
 -10.190  0.0000E+00  0.8000E+01
 -10.180  0.0000E+00  0.8000E+01
 -10.170  0.0000E+00  0.8000E+01
 -10.160  0.0000E+00  0.8000E+01
 -10.150  0.0000E+00  0.8000E+01
 -10.140  0.0000E+00  0.8000E+01
 -10.130  0.0000E+00  0.8000E+01
 -10.120  0.0000E+00  0.8000E+01
 -10.110  0.0000E+00  0.8000E+01
 -10.100  0.0000E+00  0.8000E+01
 -10.090  0.0000E+00  0.8000E+01
 -10.080  0.0000E+00  0.8000E+01
 -10.070  0.0000E+00  0.8000E+01
 -10.060  0.0000E+00  0.8000E+01
 -10.050  0.0000E+00  0.8000E+01
 -10.040  0.0000E+00  0.8000E+01
 -10.030  0.0000E+00  0.8000E+01
 -10.020  0.0000E+00  0.8000E+01
 -10.010  0.0000E+00  0.8000E+01
 -10.000  0.0000E+00  0.8000E+01
  -9.990  0.0000E+00  0.8000E+01
  -9.980  0.0000E+00  0.8000E+01
  -9.970  0.0000E+00  0.8000E+01
  -9.960  0.0000E+00  0.8000E+01
  -9.950  0.0000E+00  0.8000E+01
  -9.940  0.0000E+00  0.8000E+01
  -9.930  0.0000E+00  0.8000E+01
  -9.920  0.0000E+00  0.8000E+01
  -9.910  0.0000E+00  0.8000E+01
  -9.900  0.0000E+00  0.8000E+01
  -9.890  0.0000E+00  0.8000E+01
  -9.880  0.0000E+00  0.8000E+01
  -9.870  0.0000E+00  0.8000E+01
  -9.860  0.0000E+00  0.8000E+01
  -9.850  0.0000E+00  0.8000E+01
  -9.840  0.0000E+00  0.8000E+01
  -9.830  0.0000E+00  0.8000E+01
  -9.820  0.0000E+00  0.8000E+01
  -9.810  0.0000E+00  0.8000E+01
  -9.800  0.0000E+00  0.8000E+01
  -9.790  0.0000E+00  0.8000E+01
  -9.780  0.0000E+00  0.8000E+01
  -9.770  0.0000E+00  0.8000E+01
  -9.760  0.0000E+00  0.8000E+01
  -9.750  0.0000E+00  0.8000E+01
  -9.740  0.0000E+00  0.8000E+01
  -9.730  0.0000E+00  0.8000E+01
  -9.720  0.0000E+00  0.8000E+01
  -9.710  0.0000E+00  0.8000E+01
  -9.700  0.0000E+00  0.8000E+01
  -9.690  0.0000E+00  0.8000E+01
  -9.680  0.0000E+00  0.8000E+01
  -9.670  0.0000E+00  0.8000E+01
  -9.660  0.0000E+00  0.8000E+01
  -9.650  0.0000E+00  0.8000E+01
  -9.640  0.0000E+00  0.8000E+01
  -9.630  0.0000E+00  0.8000E+01
  -9.620  0.0000E+00  0.8000E+01
  -9.610  0.0000E+00  0.8000E+01
  -9.600  0.0000E+00  0.8000E+01
  -9.590  0.0000E+00  0.8000E+01
  -9.580  0.0000E+00  0.8000E+01
  -9.570  0.0000E+00  0.8000E+01
  -9.560  0.0000E+00  0.8000E+01
  -9.550  0.0000E+00  0.8000E+01
  -9.540  0.0000E+00  0.8000E+01
  -9.530  0.0000E+00  0.8000E+01
  -9.520  0.0000E+00  0.8000E+01
  -9.510  0.0000E+00  0.8000E+01
  -9.500  0.0000E+00  0.8000E+01
  -9.490  0.0000E+00  0.8000E+01
  -9.480  0.0000E+00  0.8000E+01
  -9.470  0.0000E+00  0.8000E+01
  -9.460  0.0000E+00  0.8000E+01
  -9.450  0.0000E+00  0.8000E+01
  -9.440  0.0000E+00  0.8000E+01
  -9.430  0.0000E+00  0.8000E+01
  -9.420  0.0000E+00  0.8000E+01
  -9.410  0.0000E+00  0.8000E+01
  -9.400  0.0000E+00  0.8000E+01
  -9.390  0.0000E+00  0.8000E+01
  -9.380  0.0000E+00  0.8000E+01
  -9.370  0.0000E+00  0.8000E+01
  -9.360  0.0000E+00  0.8000E+01
  -9.350  0.0000E+00  0.8000E+01
  -9.340  0.0000E+00  0.8000E+01
  -9.330  0.0000E+00  0.8000E+01
  -9.320  0.0000E+00  0.8000E+01
  -9.310  0.0000E+00  0.8000E+01
  -9.300  0.0000E+00  0.8000E+01
  -9.290  0.0000E+00  0.8000E+01
  -9.280  0.0000E+00  0.8000E+01
  -9.270  0.0000E+00  0.8000E+01
  -9.260  0.0000E+00  0.8000E+01
  -9.250  0.0000E+00  0.8000E+01
  -9.240  0.0000E+00  0.8000E+01
  -9.230  0.0000E+00  0.8000E+01
  -9.220  0.0000E+00  0.8000E+01
  -9.210  0.0000E+00  0.8000E+01
  -9.200  0.0000E+00  0.8000E+01
  -9.190  0.0000E+00  0.8000E+01
  -9.180  0.0000E+00  0.8000E+01
  -9.170  0.0000E+00  0.8000E+01
  -9.160  0.0000E+00  0.8000E+01
  -9.150  0.0000E+00  0.8000E+01
  -9.140  0.0000E+00  0.8000E+01
  -9.130  0.0000E+00  0.8000E+01
  -9.120  0.0000E+00  0.8000E+01
  -9.110  0.0000E+00  0.8000E+01
  -9.100  0.0000E+00  0.8000E+01
  -9.090  0.0000E+00  0.8000E+01
  -9.080  0.0000E+00  0.8000E+01
  -9.070  0.0000E+00  0.8000E+01
  -9.060  0.0000E+00  0.8000E+01
  -9.050  0.0000E+00  0.8000E+01
  -9.040  0.0000E+00  0.8000E+01
  -9.030  0.0000E+00  0.8000E+01
  -9.020  0.0000E+00  0.8000E+01
  -9.010  0.0000E+00  0.8000E+01
  -9.000  0.0000E+00  0.8000E+01
  -8.990  0.0000E+00  0.8000E+01
  -8.980  0.0000E+00  0.8000E+01
  -8.970  0.0000E+00  0.8000E+01
  -8.960  0.0000E+00  0.8000E+01
  -8.950  0.0000E+00  0.8000E+01
  -8.940  0.0000E+00  0.8000E+01
  -8.930  0.0000E+00  0.8000E+01
  -8.920  0.0000E+00  0.8000E+01
  -8.910  0.0000E+00  0.8000E+01
  -8.900  0.0000E+00  0.8000E+01
  -8.890  0.0000E+00  0.8000E+01
  -8.880  0.0000E+00  0.8000E+01
  -8.870  0.0000E+00  0.8000E+01
  -8.860  0.0000E+00  0.8000E+01
  -8.850  0.0000E+00  0.8000E+01
  -8.840  0.0000E+00  0.8000E+01
  -8.830  0.0000E+00  0.8000E+01
  -8.820  0.0000E+00  0.8000E+01
  -8.810  0.0000E+00  0.8000E+01
  -8.800  0.0000E+00  0.8000E+01
  -8.790  0.0000E+00  0.8000E+01
  -8.780  0.0000E+00  0.8000E+01
  -8.770  0.0000E+00  0.8000E+01
  -8.760  0.0000E+00  0.8000E+01
  -8.750  0.0000E+00  0.8000E+01
  -8.740  0.0000E+00  0.8000E+01
  -8.730  0.0000E+00  0.8000E+01
  -8.720  0.0000E+00  0.8000E+01
  -8.710  0.0000E+00  0.8000E+01
  -8.700  0.0000E+00  0.8000E+01
  -8.690  0.0000E+00  0.8000E+01
  -8.680  0.0000E+00  0.8000E+01
  -8.670  0.0000E+00  0.8000E+01
  -8.660  0.0000E+00  0.8000E+01
  -8.650  0.0000E+00  0.8000E+01
  -8.640  0.0000E+00  0.8000E+01
  -8.630  0.0000E+00  0.8000E+01
  -8.620  0.0000E+00  0.8000E+01
  -8.610  0.0000E+00  0.8000E+01
  -8.600  0.0000E+00  0.8000E+01
  -8.590  0.0000E+00  0.8000E+01
  -8.580  0.0000E+00  0.8000E+01
  -8.570  0.0000E+00  0.8000E+01
  -8.560  0.0000E+00  0.8000E+01
  -8.550  0.0000E+00  0.8000E+01
  -8.540  0.0000E+00  0.8000E+01
  -8.530  0.0000E+00  0.8000E+01
  -8.520  0.0000E+00  0.8000E+01
  -8.510  0.0000E+00  0.8000E+01
  -8.500  0.0000E+00  0.8000E+01
  -8.490  0.0000E+00  0.8000E+01
  -8.480  0.0000E+00  0.8000E+01
  -8.470  0.0000E+00  0.8000E+01
  -8.460  0.0000E+00  0.8000E+01
  -8.450  0.0000E+00  0.8000E+01
  -8.440  0.0000E+00  0.8000E+01
  -8.430  0.0000E+00  0.8000E+01
  -8.420  0.0000E+00  0.8000E+01
  -8.410  0.0000E+00  0.8000E+01
  -8.400  0.0000E+00  0.8000E+01
  -8.390  0.0000E+00  0.8000E+01
  -8.380  0.0000E+00  0.8000E+01
  -8.370  0.0000E+00  0.8000E+01
  -8.360  0.0000E+00  0.8000E+01
  -8.350  0.0000E+00  0.8000E+01
  -8.340  0.0000E+00  0.8000E+01
  -8.330  0.0000E+00  0.8000E+01
  -8.320  0.0000E+00  0.8000E+01
  -8.310  0.0000E+00  0.8000E+01
  -8.300  0.0000E+00  0.8000E+01
  -8.290  0.0000E+00  0.8000E+01
  -8.280  0.0000E+00  0.8000E+01
  -8.270  0.0000E+00  0.8000E+01
  -8.260  0.0000E+00  0.8000E+01
  -8.250  0.0000E+00  0.8000E+01
  -8.240  0.0000E+00  0.8000E+01
  -8.230  0.0000E+00  0.8000E+01
  -8.220  0.0000E+00  0.8000E+01
  -8.210  0.0000E+00  0.8000E+01
  -8.200  0.0000E+00  0.8000E+01
  -8.190  0.0000E+00  0.8000E+01
  -8.180  0.0000E+00  0.8000E+01
  -8.170  0.0000E+00  0.8000E+01
  -8.160  0.0000E+00  0.8000E+01
  -8.150  0.0000E+00  0.8000E+01
  -8.140  0.0000E+00  0.8000E+01
  -8.130  0.0000E+00  0.8000E+01
  -8.120  0.0000E+00  0.8000E+01
  -8.110  0.0000E+00  0.8000E+01
  -8.100  0.0000E+00  0.8000E+01
  -8.090  0.0000E+00  0.8000E+01
  -8.080  0.0000E+00  0.8000E+01
  -8.070  0.0000E+00  0.8000E+01
  -8.060  0.0000E+00  0.8000E+01
  -8.050  0.0000E+00  0.8000E+01
  -8.040  0.0000E+00  0.8000E+01
  -8.030  0.0000E+00  0.8000E+01
  -8.020  0.0000E+00  0.8000E+01
  -8.010  0.0000E+00  0.8000E+01
  -8.000  0.0000E+00  0.8000E+01
  -7.990  0.0000E+00  0.8000E+01
  -7.980  0.0000E+00  0.8000E+01
  -7.970  0.0000E+00  0.8000E+01
  -7.960  0.0000E+00  0.8000E+01
  -7.950  0.0000E+00  0.8000E+01
  -7.940  0.0000E+00  0.8000E+01
  -7.930  0.0000E+00  0.8000E+01
  -7.920  0.0000E+00  0.8000E+01
  -7.910  0.0000E+00  0.8000E+01
  -7.900  0.0000E+00  0.8000E+01
  -7.890  0.0000E+00  0.8000E+01
  -7.880  0.0000E+00  0.8000E+01
  -7.870  0.0000E+00  0.8000E+01
  -7.860  0.0000E+00  0.8000E+01
  -7.850  0.0000E+00  0.8000E+01
  -7.840  0.0000E+00  0.8000E+01
  -7.830  0.0000E+00  0.8000E+01
  -7.820  0.0000E+00  0.8000E+01
  -7.810  0.0000E+00  0.8000E+01
  -7.800  0.0000E+00  0.8000E+01
  -7.790  0.0000E+00  0.8000E+01
  -7.780  0.0000E+00  0.8000E+01
  -7.770  0.0000E+00  0.8000E+01
  -7.760  0.0000E+00  0.8000E+01
  -7.750  0.0000E+00  0.8000E+01
  -7.740  0.0000E+00  0.8000E+01
  -7.730  0.0000E+00  0.8000E+01
  -7.720  0.0000E+00  0.8000E+01
  -7.710  0.0000E+00  0.8000E+01
  -7.700  0.0000E+00  0.8000E+01
  -7.690  0.0000E+00  0.8000E+01
  -7.680  0.0000E+00  0.8000E+01
  -7.670  0.0000E+00  0.8000E+01
  -7.660  0.0000E+00  0.8000E+01
  -7.650  0.0000E+00  0.8000E+01
  -7.640  0.0000E+00  0.8000E+01
  -7.630  0.0000E+00  0.8000E+01
  -7.620  0.0000E+00  0.8000E+01
  -7.610  0.0000E+00  0.8000E+01
  -7.600  0.0000E+00  0.8000E+01
  -7.590  0.0000E+00  0.8000E+01
  -7.580  0.0000E+00  0.8000E+01
  -7.570  0.0000E+00  0.8000E+01
  -7.560  0.0000E+00  0.8000E+01
  -7.550  0.0000E+00  0.8000E+01
  -7.540  0.0000E+00  0.8000E+01
  -7.530  0.0000E+00  0.8000E+01
  -7.520  0.0000E+00  0.8000E+01
  -7.510  0.0000E+00  0.8000E+01
  -7.500  0.0000E+00  0.8000E+01
  -7.490  0.0000E+00  0.8000E+01
  -7.480  0.0000E+00  0.8000E+01
  -7.470  0.0000E+00  0.8000E+01
  -7.460  0.0000E+00  0.8000E+01
  -7.450  0.0000E+00  0.8000E+01
  -7.440  0.0000E+00  0.8000E+01
  -7.430  0.0000E+00  0.8000E+01
  -7.420  0.0000E+00  0.8000E+01
  -7.410  0.0000E+00  0.8000E+01
  -7.400  0.0000E+00  0.8000E+01
  -7.390  0.0000E+00  0.8000E+01
  -7.380  0.0000E+00  0.8000E+01
  -7.370  0.0000E+00  0.8000E+01
  -7.360  0.0000E+00  0.8000E+01
  -7.350  0.0000E+00  0.8000E+01
  -7.340  0.0000E+00  0.8000E+01
  -7.330  0.0000E+00  0.8000E+01
  -7.320  0.0000E+00  0.8000E+01
  -7.310  0.0000E+00  0.8000E+01
  -7.300  0.0000E+00  0.8000E+01
  -7.290  0.0000E+00  0.8000E+01
  -7.280  0.0000E+00  0.8000E+01
  -7.270  0.0000E+00  0.8000E+01
  -7.260  0.0000E+00  0.8000E+01
  -7.250  0.0000E+00  0.8000E+01
  -7.240  0.0000E+00  0.8000E+01
  -7.230  0.0000E+00  0.8000E+01
  -7.220  0.0000E+00  0.8000E+01
  -7.210  0.0000E+00  0.8000E+01
  -7.200  0.0000E+00  0.8000E+01
  -7.190  0.0000E+00  0.8000E+01
  -7.180  0.0000E+00  0.8000E+01
  -7.170  0.0000E+00  0.8000E+01
  -7.160  0.0000E+00  0.8000E+01
  -7.150  0.0000E+00  0.8000E+01
  -7.140  0.0000E+00  0.8000E+01
  -7.130  0.0000E+00  0.8000E+01
  -7.120  0.0000E+00  0.8000E+01
  -7.110  0.0000E+00  0.8000E+01
  -7.100  0.0000E+00  0.8000E+01
  -7.090  0.0000E+00  0.8000E+01
  -7.080  0.0000E+00  0.8000E+01
  -7.070  0.0000E+00  0.8000E+01
  -7.060  0.0000E+00  0.8000E+01
  -7.050  0.0000E+00  0.8000E+01
  -7.040  0.0000E+00  0.8000E+01
  -7.030  0.0000E+00  0.8000E+01
  -7.020  0.0000E+00  0.8000E+01
  -7.010  0.0000E+00  0.8000E+01
  -7.000  0.0000E+00  0.8000E+01
  -6.990  0.0000E+00  0.8000E+01
  -6.980  0.0000E+00  0.8000E+01
  -6.970  0.0000E+00  0.8000E+01
  -6.960  0.0000E+00  0.8000E+01
  -6.950  0.0000E+00  0.8000E+01
  -6.940  0.0000E+00  0.8000E+01
  -6.930  0.0000E+00  0.8000E+01
  -6.920  0.0000E+00  0.8000E+01
  -6.910  0.0000E+00  0.8000E+01
  -6.900  0.0000E+00  0.8000E+01
  -6.890  0.0000E+00  0.8000E+01
  -6.880  0.0000E+00  0.8000E+01
  -6.870  0.0000E+00  0.8000E+01
  -6.860  0.0000E+00  0.8000E+01
  -6.850  0.0000E+00  0.8000E+01
  -6.840  0.0000E+00  0.8000E+01
  -6.830  0.0000E+00  0.8000E+01
  -6.820  0.0000E+00  0.8000E+01
  -6.810  0.0000E+00  0.8000E+01
  -6.800  0.0000E+00  0.8000E+01
  -6.790  0.0000E+00  0.8000E+01
  -6.780  0.0000E+00  0.8000E+01
  -6.770  0.0000E+00  0.8000E+01
  -6.760  0.0000E+00  0.8000E+01
  -6.750  0.0000E+00  0.8000E+01
  -6.740  0.0000E+00  0.8000E+01
  -6.730  0.0000E+00  0.8000E+01
  -6.720  0.0000E+00  0.8000E+01
  -6.710  0.0000E+00  0.8000E+01
  -6.700  0.0000E+00  0.8000E+01
  -6.690  0.0000E+00  0.8000E+01
  -6.680  0.0000E+00  0.8000E+01
  -6.670  0.0000E+00  0.8000E+01
  -6.660  0.0000E+00  0.8000E+01
  -6.650  0.0000E+00  0.8000E+01
  -6.640  0.0000E+00  0.8000E+01
  -6.630  0.0000E+00  0.8000E+01
  -6.620  0.0000E+00  0.8000E+01
  -6.610  0.0000E+00  0.8000E+01
  -6.600  0.0000E+00  0.8000E+01
  -6.590  0.0000E+00  0.8000E+01
  -6.580  0.0000E+00  0.8000E+01
  -6.570  0.0000E+00  0.8000E+01
  -6.560  0.0000E+00  0.8000E+01
  -6.550  0.0000E+00  0.8000E+01
  -6.540  0.0000E+00  0.8000E+01
  -6.530  0.0000E+00  0.8000E+01
  -6.520  0.0000E+00  0.8000E+01
  -6.510  0.0000E+00  0.8000E+01
  -6.500  0.0000E+00  0.8000E+01
  -6.490  0.0000E+00  0.8000E+01
  -6.480  0.0000E+00  0.8000E+01
  -6.470  0.0000E+00  0.8000E+01
  -6.460  0.0000E+00  0.8000E+01
  -6.450  0.0000E+00  0.8000E+01
  -6.440  0.0000E+00  0.8000E+01
  -6.430  0.0000E+00  0.8000E+01
  -6.420  0.0000E+00  0.8000E+01
  -6.410  0.0000E+00  0.8000E+01
  -6.400  0.0000E+00  0.8000E+01
  -6.390  0.0000E+00  0.8000E+01
  -6.380  0.0000E+00  0.8000E+01
  -6.370  0.0000E+00  0.8000E+01
  -6.360  0.0000E+00  0.8000E+01
  -6.350  0.0000E+00  0.8000E+01
  -6.340  0.0000E+00  0.8000E+01
  -6.330  0.0000E+00  0.8000E+01
  -6.320  0.0000E+00  0.8000E+01
  -6.310  0.0000E+00  0.8000E+01
  -6.300  0.0000E+00  0.8000E+01
  -6.290  0.0000E+00  0.8000E+01
  -6.280  0.0000E+00  0.8000E+01
  -6.270  0.0000E+00  0.8000E+01
  -6.260  0.0000E+00  0.8000E+01
  -6.250  0.0000E+00  0.8000E+01
  -6.240  0.0000E+00  0.8000E+01
  -6.230  0.0000E+00  0.8000E+01
  -6.220  0.0000E+00  0.8000E+01
  -6.210  0.0000E+00  0.8000E+01
  -6.200  0.0000E+00  0.8000E+01
  -6.190  0.0000E+00  0.8000E+01
  -6.180  0.0000E+00  0.8000E+01
  -6.170  0.0000E+00  0.8000E+01
  -6.160  0.0000E+00  0.8000E+01
  -6.150  0.0000E+00  0.8000E+01
  -6.140  0.0000E+00  0.8000E+01
  -6.130  0.0000E+00  0.8000E+01
  -6.120  0.0000E+00  0.8000E+01
  -6.110  0.0000E+00  0.8000E+01
  -6.100  0.0000E+00  0.8000E+01
  -6.090  0.0000E+00  0.8000E+01
  -6.080  0.0000E+00  0.8000E+01
  -6.070  0.0000E+00  0.8000E+01
  -6.060  0.0000E+00  0.8000E+01
  -6.050  0.0000E+00  0.8000E+01
  -6.040  0.0000E+00  0.8000E+01
  -6.030  0.0000E+00  0.8000E+01
  -6.020  0.0000E+00  0.8000E+01
  -6.010  0.0000E+00  0.8000E+01
  -6.000  0.0000E+00  0.8000E+01
  -5.990  0.0000E+00  0.8000E+01
  -5.980  0.0000E+00  0.8000E+01
  -5.970  0.0000E+00  0.8000E+01
  -5.960  0.0000E+00  0.8000E+01
  -5.950  0.0000E+00  0.8000E+01
  -5.940  0.0000E+00  0.8000E+01
  -5.930  0.0000E+00  0.8000E+01
  -5.920  0.0000E+00  0.8000E+01
  -5.910  0.0000E+00  0.8000E+01
  -5.900  0.0000E+00  0.8000E+01
  -5.890  0.0000E+00  0.8000E+01
  -5.880  0.0000E+00  0.8000E+01
  -5.870  0.0000E+00  0.8000E+01
  -5.860  0.0000E+00  0.8000E+01
  -5.850  0.0000E+00  0.8000E+01
  -5.840  0.0000E+00  0.8000E+01
  -5.830  0.0000E+00  0.8000E+01
  -5.820  0.0000E+00  0.8000E+01
  -5.810  0.0000E+00  0.8000E+01
  -5.800  0.0000E+00  0.8000E+01
  -5.790  0.0000E+00  0.8000E+01
  -5.780  0.0000E+00  0.8000E+01
  -5.770  0.0000E+00  0.8000E+01
  -5.760  0.0000E+00  0.8000E+01
  -5.750  0.0000E+00  0.8000E+01
  -5.740  0.0000E+00  0.8000E+01
  -5.730  0.0000E+00  0.8000E+01
  -5.720  0.0000E+00  0.8000E+01
  -5.710  0.0000E+00  0.8000E+01
  -5.700  0.0000E+00  0.8000E+01
  -5.690  0.0000E+00  0.8000E+01
  -5.680  0.0000E+00  0.8000E+01
  -5.670  0.0000E+00  0.8000E+01
  -5.660  0.0000E+00  0.8000E+01
  -5.650  0.0000E+00  0.8000E+01
  -5.640  0.0000E+00  0.8000E+01
  -5.630  0.0000E+00  0.8000E+01
  -5.620  0.0000E+00  0.8000E+01
  -5.610  0.0000E+00  0.8000E+01
  -5.600  0.0000E+00  0.8000E+01
  -5.590  0.0000E+00  0.8000E+01
  -5.580  0.0000E+00  0.8000E+01
  -5.570  0.0000E+00  0.8000E+01
  -5.560  0.0000E+00  0.8000E+01
  -5.550  0.0000E+00  0.8000E+01
  -5.540  0.0000E+00  0.8000E+01
  -5.530  0.0000E+00  0.8000E+01
  -5.520  0.0000E+00  0.8000E+01
  -5.510  0.0000E+00  0.8000E+01
  -5.500  0.0000E+00  0.8000E+01
  -5.490  0.0000E+00  0.8000E+01
  -5.480  0.0000E+00  0.8000E+01
  -5.470  0.0000E+00  0.8000E+01
  -5.460  0.0000E+00  0.8000E+01
  -5.450  0.0000E+00  0.8000E+01
  -5.440  0.0000E+00  0.8000E+01
  -5.430  0.0000E+00  0.8000E+01
  -5.420  0.0000E+00  0.8000E+01
  -5.410  0.0000E+00  0.8000E+01
  -5.400  0.0000E+00  0.8000E+01
  -5.390  0.0000E+00  0.8000E+01
  -5.380  0.0000E+00  0.8000E+01
  -5.370  0.0000E+00  0.8000E+01
  -5.360  0.0000E+00  0.8000E+01
  -5.350  0.0000E+00  0.8000E+01
  -5.340  0.0000E+00  0.8000E+01
  -5.330  0.0000E+00  0.8000E+01
  -5.320  0.0000E+00  0.8000E+01
  -5.310  0.0000E+00  0.8000E+01
  -5.300  0.0000E+00  0.8000E+01
  -5.290  0.0000E+00  0.8000E+01
  -5.280  0.0000E+00  0.8000E+01
  -5.270  0.0000E+00  0.8000E+01
  -5.260  0.0000E+00  0.8000E+01
  -5.250  0.0000E+00  0.8000E+01
  -5.240  0.0000E+00  0.8000E+01
  -5.230  0.0000E+00  0.8000E+01
  -5.220  0.0000E+00  0.8000E+01
  -5.210  0.0000E+00  0.8000E+01
  -5.200  0.0000E+00  0.8000E+01
  -5.190  0.0000E+00  0.8000E+01
  -5.180  0.0000E+00  0.8000E+01
  -5.170  0.0000E+00  0.8000E+01
  -5.160  0.0000E+00  0.8000E+01
  -5.150  0.0000E+00  0.8000E+01
  -5.140  0.0000E+00  0.8000E+01
  -5.130  0.0000E+00  0.8000E+01
  -5.120  0.0000E+00  0.8000E+01
  -5.110  0.0000E+00  0.8000E+01
  -5.100  0.0000E+00  0.8000E+01
  -5.090  0.0000E+00  0.8000E+01
  -5.080  0.0000E+00  0.8000E+01
  -5.070  0.0000E+00  0.8000E+01
  -5.060  0.0000E+00  0.8000E+01
  -5.050  0.0000E+00  0.8000E+01
  -5.040  0.0000E+00  0.8000E+01
  -5.030  0.0000E+00  0.8000E+01
  -5.020  0.0000E+00  0.8000E+01
  -5.010  0.0000E+00  0.8000E+01
  -5.000  0.0000E+00  0.8000E+01
  -4.990  0.0000E+00  0.8000E+01
  -4.980  0.0000E+00  0.8000E+01
  -4.970  0.0000E+00  0.8000E+01
  -4.960  0.0000E+00  0.8000E+01
  -4.950  0.0000E+00  0.8000E+01
  -4.940  0.0000E+00  0.8000E+01
  -4.930  0.0000E+00  0.8000E+01
  -4.920  0.0000E+00  0.8000E+01
  -4.910  0.0000E+00  0.8000E+01
  -4.900  0.0000E+00  0.8000E+01
  -4.890  0.0000E+00  0.8000E+01
  -4.880  0.0000E+00  0.8000E+01
  -4.870  0.0000E+00  0.8000E+01
  -4.860  0.0000E+00  0.8000E+01
  -4.850  0.0000E+00  0.8000E+01
  -4.840  0.0000E+00  0.8000E+01
  -4.830  0.0000E+00  0.8000E+01
  -4.820  0.0000E+00  0.8000E+01
  -4.810  0.0000E+00  0.8000E+01
  -4.800  0.0000E+00  0.8000E+01
  -4.790  0.0000E+00  0.8000E+01
  -4.780  0.0000E+00  0.8000E+01
  -4.770  0.0000E+00  0.8000E+01
  -4.760  0.0000E+00  0.8000E+01
  -4.750  0.0000E+00  0.8000E+01
  -4.740  0.0000E+00  0.8000E+01
  -4.730  0.0000E+00  0.8000E+01
  -4.720  0.0000E+00  0.8000E+01
  -4.710  0.0000E+00  0.8000E+01
  -4.700  0.0000E+00  0.8000E+01
  -4.690  0.0000E+00  0.8000E+01
  -4.680  0.0000E+00  0.8000E+01
  -4.670  0.0000E+00  0.8000E+01
  -4.660  0.0000E+00  0.8000E+01
  -4.650  0.0000E+00  0.8000E+01
  -4.640  0.0000E+00  0.8000E+01
  -4.630  0.0000E+00  0.8000E+01
  -4.620  0.0000E+00  0.8000E+01
  -4.610  0.0000E+00  0.8000E+01
  -4.600  0.0000E+00  0.8000E+01
  -4.590  0.0000E+00  0.8000E+01
  -4.580  0.0000E+00  0.8000E+01
  -4.570  0.0000E+00  0.8000E+01
  -4.560  0.0000E+00  0.8000E+01
  -4.550  0.0000E+00  0.8000E+01
  -4.540  0.0000E+00  0.8000E+01
  -4.530  0.0000E+00  0.8000E+01
  -4.520  0.0000E+00  0.8000E+01
  -4.510  0.0000E+00  0.8000E+01
  -4.500  0.0000E+00  0.8000E+01
  -4.490  0.0000E+00  0.8000E+01
  -4.480  0.0000E+00  0.8000E+01
  -4.470  0.0000E+00  0.8000E+01
  -4.460  0.0000E+00  0.8000E+01
  -4.450  0.0000E+00  0.8000E+01
  -4.440  0.0000E+00  0.8000E+01
  -4.430  0.0000E+00  0.8000E+01
  -4.420  0.0000E+00  0.8000E+01
  -4.410  0.0000E+00  0.8000E+01
  -4.400  0.0000E+00  0.8000E+01
  -4.390  0.0000E+00  0.8000E+01
  -4.380  0.0000E+00  0.8000E+01
  -4.370  0.0000E+00  0.8000E+01
  -4.360  0.0000E+00  0.8000E+01
  -4.350  0.0000E+00  0.8000E+01
  -4.340  0.0000E+00  0.8000E+01
  -4.330  0.0000E+00  0.8000E+01
  -4.320  0.0000E+00  0.8000E+01
  -4.310  0.0000E+00  0.8000E+01
  -4.300  0.0000E+00  0.8000E+01
  -4.290  0.0000E+00  0.8000E+01
  -4.280  0.0000E+00  0.8000E+01
  -4.270  0.0000E+00  0.8000E+01
  -4.260  0.0000E+00  0.8000E+01
  -4.250  0.0000E+00  0.8000E+01
  -4.240  0.0000E+00  0.8000E+01
  -4.230  0.0000E+00  0.8000E+01
  -4.220  0.0000E+00  0.8000E+01
  -4.210  0.0000E+00  0.8000E+01
  -4.200  0.0000E+00  0.8000E+01
  -4.190  0.0000E+00  0.8000E+01
  -4.180  0.0000E+00  0.8000E+01
  -4.170  0.0000E+00  0.8000E+01
  -4.160  0.0000E+00  0.8000E+01
  -4.150  0.0000E+00  0.8000E+01
  -4.140  0.0000E+00  0.8000E+01
  -4.130  0.0000E+00  0.8000E+01
  -4.120  0.0000E+00  0.8000E+01
  -4.110  0.0000E+00  0.8000E+01
  -4.100  0.0000E+00  0.8000E+01
  -4.090  0.0000E+00  0.8000E+01
  -4.080  0.0000E+00  0.8000E+01
  -4.070  0.0000E+00  0.8000E+01
  -4.060  0.0000E+00  0.8000E+01
  -4.050  0.0000E+00  0.8000E+01
  -4.040  0.0000E+00  0.8000E+01
  -4.030  0.0000E+00  0.8000E+01
  -4.020  0.0000E+00  0.8000E+01
  -4.010  0.0000E+00  0.8000E+01
  -4.000  0.0000E+00  0.8000E+01
  -3.990  0.0000E+00  0.8000E+01
  -3.980  0.0000E+00  0.8000E+01
  -3.970  0.0000E+00  0.8000E+01
  -3.960  0.0000E+00  0.8000E+01
  -3.950  0.0000E+00  0.8000E+01
  -3.940  0.0000E+00  0.8000E+01
  -3.930  0.0000E+00  0.8000E+01
  -3.920  0.0000E+00  0.8000E+01
  -3.910  0.0000E+00  0.8000E+01
  -3.900  0.0000E+00  0.8000E+01
  -3.890  0.0000E+00  0.8000E+01
  -3.880  0.0000E+00  0.8000E+01
  -3.870  0.0000E+00  0.8000E+01
  -3.860  0.0000E+00  0.8000E+01
  -3.850  0.0000E+00  0.8000E+01
  -3.840  0.0000E+00  0.8000E+01
  -3.830  0.0000E+00  0.8000E+01
  -3.820  0.0000E+00  0.8000E+01
  -3.810  0.0000E+00  0.8000E+01
  -3.800  0.0000E+00  0.8000E+01
  -3.790  0.0000E+00  0.8000E+01
  -3.780  0.0000E+00  0.8000E+01
  -3.770  0.0000E+00  0.8000E+01
  -3.760  0.0000E+00  0.8000E+01
  -3.750  0.0000E+00  0.8000E+01
  -3.740  0.0000E+00  0.8000E+01
  -3.730  0.0000E+00  0.8000E+01
  -3.720  0.0000E+00  0.8000E+01
  -3.710  0.0000E+00  0.8000E+01
  -3.700  0.0000E+00  0.8000E+01
  -3.690  0.0000E+00  0.8000E+01
  -3.680  0.0000E+00  0.8000E+01
  -3.670  0.0000E+00  0.8000E+01
  -3.660  0.0000E+00  0.8000E+01
  -3.650  0.0000E+00  0.8000E+01
  -3.640  0.0000E+00  0.8000E+01
  -3.630  0.0000E+00  0.8000E+01
  -3.620  0.0000E+00  0.8000E+01
  -3.610  0.0000E+00  0.8000E+01
  -3.600  0.0000E+00  0.8000E+01
  -3.590  0.0000E+00  0.8000E+01
  -3.580  0.0000E+00  0.8000E+01
  -3.570  0.0000E+00  0.8000E+01
  -3.560  0.0000E+00  0.8000E+01
  -3.550  0.0000E+00  0.8000E+01
  -3.540  0.0000E+00  0.8000E+01
  -3.530  0.0000E+00  0.8000E+01
  -3.520  0.0000E+00  0.8000E+01
  -3.510  0.0000E+00  0.8000E+01
  -3.500  0.0000E+00  0.8000E+01
  -3.490  0.0000E+00  0.8000E+01
  -3.480  0.0000E+00  0.8000E+01
  -3.470  0.0000E+00  0.8000E+01
  -3.460  0.0000E+00  0.8000E+01
  -3.450  0.0000E+00  0.8000E+01
  -3.440  0.0000E+00  0.8000E+01
  -3.430  0.0000E+00  0.8000E+01
  -3.420  0.0000E+00  0.8000E+01
  -3.410  0.0000E+00  0.8000E+01
  -3.400  0.0000E+00  0.8000E+01
  -3.390  0.0000E+00  0.8000E+01
  -3.380  0.0000E+00  0.8000E+01
  -3.370  0.0000E+00  0.8000E+01
  -3.360  0.0000E+00  0.8000E+01
  -3.350  0.0000E+00  0.8000E+01
  -3.340  0.0000E+00  0.8000E+01
  -3.330  0.0000E+00  0.8000E+01
  -3.320  0.0000E+00  0.8000E+01
  -3.310  0.0000E+00  0.8000E+01
  -3.300  0.0000E+00  0.8000E+01
  -3.290  0.0000E+00  0.8000E+01
  -3.280  0.0000E+00  0.8000E+01
  -3.270  0.0000E+00  0.8000E+01
  -3.260  0.0000E+00  0.8000E+01
  -3.250  0.0000E+00  0.8000E+01
  -3.240  0.0000E+00  0.8000E+01
  -3.230  0.0000E+00  0.8000E+01
  -3.220  0.0000E+00  0.8000E+01
  -3.210  0.0000E+00  0.8000E+01
  -3.200  0.0000E+00  0.8000E+01
  -3.190  0.0000E+00  0.8000E+01
  -3.180  0.0000E+00  0.8000E+01
  -3.170  0.0000E+00  0.8000E+01
  -3.160  0.0000E+00  0.8000E+01
  -3.150  0.0000E+00  0.8000E+01
  -3.140  0.0000E+00  0.8000E+01
  -3.130  0.0000E+00  0.8000E+01
  -3.120  0.0000E+00  0.8000E+01
  -3.110  0.0000E+00  0.8000E+01
  -3.100  0.0000E+00  0.8000E+01
  -3.090  0.0000E+00  0.8000E+01
  -3.080  0.0000E+00  0.8000E+01
  -3.070  0.0000E+00  0.8000E+01
  -3.060  0.0000E+00  0.8000E+01
  -3.050  0.0000E+00  0.8000E+01
  -3.040  0.0000E+00  0.8000E+01
  -3.030  0.0000E+00  0.8000E+01
  -3.020  0.0000E+00  0.8000E+01
  -3.010  0.0000E+00  0.8000E+01
  -3.000  0.0000E+00  0.8000E+01
  -2.990  0.0000E+00  0.8000E+01
  -2.980  0.0000E+00  0.8000E+01
  -2.970  0.0000E+00  0.8000E+01
  -2.960  0.0000E+00  0.8000E+01
  -2.950  0.0000E+00  0.8000E+01
  -2.940  0.0000E+00  0.8000E+01
  -2.930  0.0000E+00  0.8000E+01
  -2.920  0.0000E+00  0.8000E+01
  -2.910  0.0000E+00  0.8000E+01
  -2.900  0.0000E+00  0.8000E+01
  -2.890  0.0000E+00  0.8000E+01
  -2.880  0.0000E+00  0.8000E+01
  -2.870  0.0000E+00  0.8000E+01
  -2.860  0.0000E+00  0.8000E+01
  -2.850  0.0000E+00  0.8000E+01
  -2.840  0.0000E+00  0.8000E+01
  -2.830  0.0000E+00  0.8000E+01
  -2.820  0.0000E+00  0.8000E+01
  -2.810  0.0000E+00  0.8000E+01
  -2.800  0.0000E+00  0.8000E+01
  -2.790  0.0000E+00  0.8000E+01
  -2.780  0.0000E+00  0.8000E+01
  -2.770  0.0000E+00  0.8000E+01
  -2.760  0.0000E+00  0.8000E+01
  -2.750  0.0000E+00  0.8000E+01
  -2.740  0.0000E+00  0.8000E+01
  -2.730  0.0000E+00  0.8000E+01
  -2.720  0.0000E+00  0.8000E+01
  -2.710  0.0000E+00  0.8000E+01
  -2.700  0.0000E+00  0.8000E+01
  -2.690  0.0000E+00  0.8000E+01
  -2.680  0.0000E+00  0.8000E+01
  -2.670  0.0000E+00  0.8000E+01
  -2.660  0.0000E+00  0.8000E+01
  -2.650  0.0000E+00  0.8000E+01
  -2.640  0.0000E+00  0.8000E+01
  -2.630  0.0000E+00  0.8000E+01
  -2.620  0.0000E+00  0.8000E+01
  -2.610  0.0000E+00  0.8000E+01
  -2.600  0.0000E+00  0.8000E+01
  -2.590  0.0000E+00  0.8000E+01
  -2.580  0.0000E+00  0.8000E+01
  -2.570  0.0000E+00  0.8000E+01
  -2.560  0.0000E+00  0.8000E+01
  -2.550  0.0000E+00  0.8000E+01
  -2.540  0.0000E+00  0.8000E+01
  -2.530  0.0000E+00  0.8000E+01
  -2.520  0.0000E+00  0.8000E+01
  -2.510  0.0000E+00  0.8000E+01
  -2.500  0.0000E+00  0.8000E+01
  -2.490  0.0000E+00  0.8000E+01
  -2.480  0.0000E+00  0.8000E+01
  -2.470  0.0000E+00  0.8000E+01
  -2.460  0.0000E+00  0.8000E+01
  -2.450  0.0000E+00  0.8000E+01
  -2.440  0.0000E+00  0.8000E+01
  -2.430  0.0000E+00  0.8000E+01
  -2.420  0.0000E+00  0.8000E+01
  -2.410  0.0000E+00  0.8000E+01
  -2.400  0.0000E+00  0.8000E+01
  -2.390  0.0000E+00  0.8000E+01
  -2.380  0.0000E+00  0.8000E+01
  -2.370  0.0000E+00  0.8000E+01
  -2.360  0.0000E+00  0.8000E+01
  -2.350  0.0000E+00  0.8000E+01
  -2.340  0.0000E+00  0.8000E+01
  -2.330  0.0000E+00  0.8000E+01
  -2.320  0.0000E+00  0.8000E+01
  -2.310  0.0000E+00  0.8000E+01
  -2.300  0.0000E+00  0.8000E+01
  -2.290  0.0000E+00  0.8000E+01
  -2.280  0.0000E+00  0.8000E+01
  -2.270  0.0000E+00  0.8000E+01
  -2.260  0.0000E+00  0.8000E+01
  -2.250  0.0000E+00  0.8000E+01
  -2.240  0.0000E+00  0.8000E+01
  -2.230  0.0000E+00  0.8000E+01
  -2.220  0.0000E+00  0.8000E+01
  -2.210  0.0000E+00  0.8000E+01
  -2.200  0.0000E+00  0.8000E+01
  -2.190  0.0000E+00  0.8000E+01
  -2.180  0.0000E+00  0.8000E+01
  -2.170  0.0000E+00  0.8000E+01
  -2.160  0.0000E+00  0.8000E+01
  -2.150  0.0000E+00  0.8000E+01
  -2.140  0.0000E+00  0.8000E+01
  -2.130  0.0000E+00  0.8000E+01
  -2.120  0.0000E+00  0.8000E+01
  -2.110  0.0000E+00  0.8000E+01
  -2.100  0.0000E+00  0.8000E+01
  -2.090  0.0000E+00  0.8000E+01
  -2.080  0.0000E+00  0.8000E+01
  -2.070  0.0000E+00  0.8000E+01
  -2.060  0.0000E+00  0.8000E+01
  -2.050  0.0000E+00  0.8000E+01
  -2.040  0.0000E+00  0.8000E+01
  -2.030  0.0000E+00  0.8000E+01
  -2.020  0.0000E+00  0.8000E+01
  -2.010  0.0000E+00  0.8000E+01
  -2.000  0.0000E+00  0.8000E+01
  -1.990  0.0000E+00  0.8000E+01
  -1.980  0.0000E+00  0.8000E+01
  -1.970  0.0000E+00  0.8000E+01
  -1.960  0.0000E+00  0.8000E+01
  -1.950  0.0000E+00  0.8000E+01
  -1.940  0.0000E+00  0.8000E+01
  -1.930  0.0000E+00  0.8000E+01
  -1.920  0.0000E+00  0.8000E+01
  -1.910  0.0000E+00  0.8000E+01
  -1.900  0.0000E+00  0.8000E+01
  -1.890  0.0000E+00  0.8000E+01
  -1.880  0.0000E+00  0.8000E+01
  -1.870  0.0000E+00  0.8000E+01
  -1.860  0.0000E+00  0.8000E+01
  -1.850  0.0000E+00  0.8000E+01
  -1.840  0.0000E+00  0.8000E+01
  -1.830  0.0000E+00  0.8000E+01
  -1.820  0.1778E+00  0.8000E+01
  -1.810  0.6439E+00  0.8004E+01
  -1.800  0.1520E+01  0.8015E+01
  -1.790  0.1516E+01  0.8029E+01
  -1.780  0.1508E+01  0.8044E+01
  -1.770  0.1522E+01  0.8059E+01
  -1.760  0.1505E+01  0.8075E+01
  -1.750  0.1507E+01  0.8090E+01
  -1.740  0.1558E+01  0.8105E+01
  -1.730  0.1528E+01  0.8121E+01
  -1.720  0.1528E+01  0.8136E+01
  -1.710  0.1577E+01  0.8151E+01
  -1.700  0.1599E+01  0.8167E+01
  -1.690  0.1555E+01  0.8183E+01
  -1.680  0.1573E+01  0.8199E+01
  -1.670  0.1612E+01  0.8215E+01
  -1.660  0.1637E+01  0.8231E+01
  -1.650  0.1620E+01  0.8247E+01
  -1.640  0.1620E+01  0.8263E+01
  -1.630  0.1642E+01  0.8280E+01
  -1.620  0.1674E+01  0.8296E+01
  -1.610  0.1687E+01  0.8313E+01
  -1.600  0.1692E+01  0.8330E+01
  -1.590  0.1695E+01  0.8347E+01
  -1.580  0.1717E+01  0.8364E+01
  -1.570  0.1738E+01  0.8381E+01
  -1.560  0.1765E+01  0.8399E+01
  -1.550  0.1780E+01  0.8416E+01
  -1.540  0.2066E+01  0.8435E+01
  -1.530  0.2448E+01  0.8459E+01
  -1.520  0.2628E+01  0.8484E+01
  -1.510  0.2776E+01  0.8511E+01
  -1.500  0.3001E+01  0.8540E+01
  -1.490  0.3132E+01  0.8571E+01
  -1.480  0.3325E+01  0.8603E+01
  -1.470  0.3492E+01  0.8637E+01
  -1.460  0.3489E+01  0.8672E+01
  -1.450  0.3529E+01  0.8707E+01
  -1.440  0.3625E+01  0.8743E+01
  -1.430  0.3656E+01  0.8780E+01
  -1.420  0.3726E+01  0.8816E+01
  -1.410  0.3776E+01  0.8854E+01
  -1.400  0.3883E+01  0.8892E+01
  -1.390  0.3990E+01  0.8931E+01
  -1.380  0.4113E+01  0.8972E+01
  -1.370  0.4282E+01  0.9014E+01
  -1.360  0.4476E+01  0.9058E+01
  -1.350  0.4827E+01  0.9104E+01
  -1.340  0.5558E+01  0.9160E+01
  -1.330  0.4867E+01  0.9213E+01
  -1.320  0.4454E+01  0.9260E+01
  -1.310  0.4127E+01  0.9302E+01
  -1.300  0.4037E+01  0.9343E+01
  -1.290  0.3856E+01  0.9383E+01
  -1.280  0.3755E+01  0.9421E+01
  -1.270  0.3685E+01  0.9458E+01
  -1.260  0.3586E+01  0.9494E+01
  -1.250  0.3495E+01  0.9530E+01
  -1.240  0.3502E+01  0.9565E+01
  -1.230  0.3422E+01  0.9599E+01
  -1.220  0.3455E+01  0.9634E+01
  -1.210  0.3561E+01  0.9669E+01
  -1.200  0.3698E+01  0.9705E+01
  -1.190  0.3699E+01  0.9742E+01
  -1.180  0.3634E+01  0.9779E+01
  -1.170  0.3614E+01  0.9815E+01
  -1.160  0.3746E+01  0.9851E+01
  -1.150  0.3878E+01  0.9889E+01
  -1.140  0.4140E+01  0.9929E+01
  -1.130  0.4600E+01  0.9974E+01
  -1.120  0.4645E+01  0.1002E+02
  -1.110  0.4709E+01  0.1007E+02
  -1.100  0.4761E+01  0.1012E+02
  -1.090  0.4813E+01  0.1016E+02
  -1.080  0.4967E+01  0.1021E+02
  -1.070  0.5080E+01  0.1026E+02
  -1.060  0.5242E+01  0.1031E+02
  -1.050  0.5585E+01  0.1037E+02
  -1.040  0.6120E+01  0.1043E+02
  -1.030  0.5811E+01  0.1048E+02
  -1.020  0.5587E+01  0.1054E+02
  -1.010  0.5238E+01  0.1060E+02
  -1.000  0.4990E+01  0.1065E+02
  -0.990  0.4875E+01  0.1070E+02
  -0.980  0.4761E+01  0.1074E+02
  -0.970  0.4745E+01  0.1079E+02
  -0.960  0.4662E+01  0.1084E+02
  -0.950  0.4616E+01  0.1089E+02
  -0.940  0.4569E+01  0.1093E+02
  -0.930  0.4621E+01  0.1098E+02
  -0.920  0.4644E+01  0.1102E+02
  -0.910  0.4556E+01  0.1107E+02
  -0.900  0.4528E+01  0.1112E+02
  -0.890  0.4602E+01  0.1116E+02
  -0.880  0.5600E+01  0.1121E+02
  -0.870  0.6217E+01  0.1127E+02
  -0.860  0.6521E+01  0.1133E+02
  -0.850  0.7003E+01  0.1140E+02
  -0.840  0.7343E+01  0.1147E+02
  -0.830  0.7890E+01  0.1155E+02
  -0.820  0.7405E+01  0.1163E+02
  -0.810  0.6829E+01  0.1170E+02
  -0.800  0.6446E+01  0.1177E+02
  -0.790  0.6259E+01  0.1183E+02
  -0.780  0.6060E+01  0.1189E+02
  -0.770  0.5926E+01  0.1195E+02
  -0.760  0.5933E+01  0.1201E+02
  -0.750  0.5927E+01  0.1207E+02
  -0.740  0.5922E+01  0.1213E+02
  -0.730  0.5977E+01  0.1219E+02
  -0.720  0.6217E+01  0.1225E+02
  -0.710  0.6334E+01  0.1231E+02
  -0.700  0.6343E+01  0.1238E+02
  -0.690  0.6397E+01  0.1244E+02
  -0.680  0.6397E+01  0.1251E+02
  -0.670  0.6502E+01  0.1257E+02
  -0.660  0.6745E+01  0.1264E+02
  -0.650  0.6661E+01  0.1270E+02
  -0.640  0.6395E+01  0.1277E+02
  -0.630  0.6702E+01  0.1283E+02
  -0.620  0.7682E+01  0.1291E+02
  -0.610  0.8595E+01  0.1299E+02
  -0.600  0.1287E+02  0.1309E+02
  -0.590  0.4558E+01  0.1318E+02
  -0.580  0.4722E+01  0.1323E+02
  -0.570  0.4948E+01  0.1328E+02
  -0.560  0.5765E+01  0.1333E+02
  -0.550  0.6566E+01  0.1339E+02
  -0.540  0.6313E+01  0.1346E+02
  -0.530  0.6311E+01  0.1352E+02
  -0.520  0.6701E+01  0.1358E+02
  -0.510  0.5801E+01  0.1365E+02
  -0.500  0.5073E+01  0.1370E+02
  -0.490  0.4671E+01  0.1375E+02
  -0.480  0.3930E+01  0.1379E+02
  -0.470  0.3483E+01  0.1383E+02
  -0.460  0.3085E+01  0.1386E+02
  -0.450  0.2815E+01  0.1389E+02
  -0.440  0.2694E+01  0.1392E+02
  -0.430  0.2667E+01  0.1394E+02
  -0.420  0.3133E+01  0.1397E+02
  -0.410  0.4184E+01  0.1401E+02
  -0.400  0.4643E+01  0.1406E+02
  -0.390  0.3504E+01  0.1410E+02
  -0.380  0.3120E+01  0.1413E+02
  -0.370  0.2921E+01  0.1416E+02
  -0.360  0.2813E+01  0.1419E+02
  -0.350  0.3525E+01  0.1422E+02
  -0.340  0.3329E+01  0.1426E+02
  -0.330  0.3364E+01  0.1429E+02
  -0.320  0.3138E+01  0.1432E+02
  -0.310  0.3023E+01  0.1435E+02
  -0.300  0.2987E+01  0.1438E+02
  -0.290  0.2957E+01  0.1441E+02
  -0.280  0.2922E+01  0.1444E+02
  -0.270  0.2903E+01  0.1447E+02
  -0.260  0.2890E+01  0.1450E+02
  -0.250  0.2872E+01  0.1453E+02
  -0.240  0.2858E+01  0.1456E+02
  -0.230  0.2846E+01  0.1459E+02
  -0.220  0.2839E+01  0.1461E+02
  -0.210  0.2844E+01  0.1464E+02
  -0.200  0.2839E+01  0.1467E+02
  -0.190  0.2838E+01  0.1470E+02
  -0.180  0.2842E+01  0.1473E+02
  -0.170  0.2852E+01  0.1476E+02
  -0.160  0.2861E+01  0.1478E+02
  -0.150  0.2866E+01  0.1481E+02
  -0.140  0.2871E+01  0.1484E+02
  -0.130  0.2877E+01  0.1487E+02
  -0.120  0.2895E+01  0.1490E+02
  -0.110  0.2925E+01  0.1493E+02
  -0.100  0.2969E+01  0.1496E+02
  -0.090  0.3010E+01  0.1499E+02
  -0.080  0.3046E+01  0.1502E+02
  -0.070  0.3089E+01  0.1505E+02
  -0.060  0.3153E+01  0.1508E+02
  -0.050  0.3245E+01  0.1511E+02
  -0.040  0.3392E+01  0.1515E+02
  -0.030  0.3934E+01  0.1518E+02
  -0.020  0.4310E+01  0.1522E+02
  -0.010  0.4877E+01  0.1527E+02
   0.000  0.5705E+01  0.1532E+02
   0.010  0.5398E+01  0.1538E+02
   0.020  0.6201E+01  0.1543E+02
   0.030  0.8342E+01  0.1551E+02
   0.040  0.4092E+01  0.1556E+02
   0.050  0.3700E+01  0.1560E+02
   0.060  0.3493E+01  0.1563E+02
   0.070  0.3408E+01  0.1567E+02
   0.080  0.3352E+01  0.1570E+02
   0.090  0.3382E+01  0.1574E+02
   0.100  0.3373E+01  0.1577E+02
   0.110  0.3401E+01  0.1580E+02
   0.120  0.3428E+01  0.1584E+02
   0.130  0.3534E+01  0.1587E+02
   0.140  0.3673E+01  0.1591E+02
   0.150  0.3842E+01  0.1595E+02
   0.160  0.3847E+01  0.1599E+02
   0.170  0.3575E+01  0.1602E+02
   0.180  0.3140E+01  0.1606E+02
   0.190  0.2946E+01  0.1609E+02
   0.200  0.2887E+01  0.1612E+02
   0.210  0.2871E+01  0.1614E+02
   0.220  0.2870E+01  0.1617E+02
   0.230  0.2875E+01  0.1620E+02
   0.240  0.2882E+01  0.1623E+02
   0.250  0.2919E+01  0.1626E+02
   0.260  0.3048E+01  0.1629E+02
   0.270  0.3152E+01  0.1632E+02
   0.280  0.3272E+01  0.1635E+02
   0.290  0.3415E+01  0.1639E+02
   0.300  0.3486E+01  0.1642E+02
   0.310  0.3555E+01  0.1646E+02
   0.320  0.3615E+01  0.1649E+02
   0.330  0.3675E+01  0.1653E+02
   0.340  0.3745E+01  0.1656E+02
   0.350  0.3804E+01  0.1660E+02
   0.360  0.3863E+01  0.1664E+02
   0.370  0.3927E+01  0.1668E+02
   0.380  0.3993E+01  0.1672E+02
   0.390  0.4074E+01  0.1676E+02
   0.400  0.4162E+01  0.1680E+02
   0.410  0.4242E+01  0.1684E+02
   0.420  0.4329E+01  0.1689E+02
   0.430  0.4414E+01  0.1693E+02
   0.440  0.4498E+01  0.1697E+02
   0.450  0.4587E+01  0.1702E+02
   0.460  0.4690E+01  0.1707E+02
   0.470  0.4805E+01  0.1711E+02
   0.480  0.4931E+01  0.1716E+02
   0.490  0.5060E+01  0.1721E+02
   0.500  0.5198E+01  0.1726E+02
   0.510  0.5348E+01  0.1732E+02
   0.520  0.5533E+01  0.1737E+02
   0.530  0.5749E+01  0.1743E+02
   0.540  0.5941E+01  0.1748E+02
   0.550  0.8367E+01  0.1757E+02
   0.560  0.7281E+01  0.1765E+02
   0.570  0.6931E+01  0.1772E+02
   0.580  0.6772E+01  0.1779E+02
   0.590  0.6712E+01  0.1785E+02
   0.600  0.6682E+01  0.1792E+02
   0.610  0.6809E+01  0.1799E+02
   0.620  0.6778E+01  0.1806E+02
   0.630  0.6461E+01  0.1812E+02
   0.640  0.6282E+01  0.1819E+02
   0.650  0.6213E+01  0.1825E+02
   0.660  0.6175E+01  0.1831E+02
   0.670  0.6162E+01  0.1837E+02
   0.680  0.6189E+01  0.1843E+02
   0.690  0.6261E+01  0.1850E+02
   0.700  0.6284E+01  0.1856E+02
   0.710  0.6359E+01  0.1862E+02
   0.720  0.6541E+01  0.1869E+02
   0.730  0.6732E+01  0.1875E+02
   0.740  0.7202E+01  0.1882E+02
   0.750  0.7604E+01  0.1890E+02
   0.760  0.7266E+01  0.1897E+02
   0.770  0.6968E+01  0.1904E+02
   0.780  0.7057E+01  0.1911E+02
   0.790  0.7180E+01  0.1918E+02
   0.800  0.7742E+01  0.1926E+02
   0.810  0.7963E+01  0.1934E+02
   0.820  0.7918E+01  0.1942E+02
   0.830  0.7188E+01  0.1949E+02
   0.840  0.6930E+01  0.1956E+02
   0.850  0.7263E+01  0.1963E+02
   0.860  0.7573E+01  0.1970E+02
   0.870  0.7765E+01  0.1978E+02
   0.880  0.8097E+01  0.1986E+02
   0.890  0.7947E+01  0.1994E+02
   0.900  0.8139E+01  0.2002E+02
   0.910  0.7686E+01  0.2010E+02
   0.920  0.7556E+01  0.2018E+02
   0.930  0.8334E+01  0.2026E+02
   0.940  0.8526E+01  0.2034E+02
   0.950  0.8337E+01  0.2043E+02
   0.960  0.8241E+01  0.2051E+02
   0.970  0.7960E+01  0.2059E+02
   0.980  0.8047E+01  0.2067E+02
   0.990  0.8186E+01  0.2075E+02
   1.000  0.7900E+01  0.2083E+02
   1.010  0.7475E+01  0.2091E+02
   1.020  0.6719E+01  0.2098E+02
   1.030  0.6456E+01  0.2104E+02
   1.040  0.6561E+01  0.2111E+02
   1.050  0.6465E+01  0.2117E+02
   1.060  0.6225E+01  0.2124E+02
   1.070  0.5953E+01  0.2130E+02
   1.080  0.5872E+01  0.2136E+02
   1.090  0.6025E+01  0.2142E+02
   1.100  0.6344E+01  0.2148E+02
   1.110  0.6627E+01  0.2155E+02
   1.120  0.6983E+01  0.2161E+02
   1.130  0.7206E+01  0.2169E+02
   1.140  0.6864E+01  0.2176E+02
   1.150  0.6874E+01  0.2182E+02
   1.160  0.6944E+01  0.2189E+02
   1.170  0.7057E+01  0.2196E+02
   1.180  0.7232E+01  0.2204E+02
   1.190  0.7376E+01  0.2211E+02
   1.200  0.7557E+01  0.2218E+02
   1.210  0.7869E+01  0.2226E+02
   1.220  0.8071E+01  0.2234E+02
   1.230  0.8423E+01  0.2242E+02
   1.240  0.8150E+01  0.2251E+02
   1.250  0.8227E+01  0.2259E+02
   1.260  0.8224E+01  0.2267E+02
   1.270  0.8233E+01  0.2275E+02
   1.280  0.8365E+01  0.2283E+02
   1.290  0.8547E+01  0.2292E+02
   1.300  0.8566E+01  0.2300E+02
   1.310  0.8673E+01  0.2309E+02
   1.320  0.8720E+01  0.2318E+02
   1.330  0.8957E+01  0.2327E+02
   1.340  0.9047E+01  0.2335E+02
   1.350  0.9258E+01  0.2344E+02
   1.360  0.8498E+01  0.2353E+02
   1.370  0.8019E+01  0.2361E+02
   1.380  0.8038E+01  0.2369E+02
   1.390  0.8462E+01  0.2378E+02
   1.400  0.7590E+01  0.2386E+02
   1.410  0.6783E+01  0.2393E+02
   1.420  0.6863E+01  0.2399E+02
   1.430  0.7249E+01  0.2406E+02
   1.440  0.7727E+01  0.2414E+02
   1.450  0.8115E+01  0.2422E+02
   1.460  0.8896E+01  0.2430E+02
   1.470  0.8591E+01  0.2439E+02
   1.480  0.7721E+01  0.2447E+02
   1.490  0.7500E+01  0.2455E+02
   1.500  0.7500E+01  0.2462E+02
   1.510  0.8126E+01  0.2470E+02
   1.520  0.8426E+01  0.2478E+02
   1.530  0.8998E+01  0.2487E+02
   1.540  0.7790E+01  0.2496E+02
   1.550  0.7365E+01  0.2503E+02
   1.560  0.6991E+01  0.2510E+02
   1.570  0.6532E+01  0.2517E+02
   1.580  0.6430E+01  0.2524E+02
   1.590  0.6733E+01  0.2530E+02
   1.600  0.7043E+01  0.2537E+02
   1.610  0.7175E+01  0.2544E+02
   1.620  0.7441E+01  0.2552E+02
   1.630  0.7735E+01  0.2559E+02
   1.640  0.7870E+01  0.2567E+02
   1.650  0.7774E+01  0.2575E+02
   1.660  0.7915E+01  0.2583E+02
   1.670  0.8100E+01  0.2591E+02
   1.680  0.8166E+01  0.2599E+02
   1.690  0.7962E+01  0.2607E+02
   1.700  0.7316E+01  0.2615E+02
   1.710  0.7163E+01  0.2622E+02
   1.720  0.7055E+01  0.2629E+02
   1.730  0.7157E+01  0.2636E+02
   1.740  0.6507E+01  0.2643E+02
   1.750  0.6079E+01  0.2649E+02
   1.760  0.5806E+01  0.2655E+02
   1.770  0.5697E+01  0.2661E+02
   1.780  0.5704E+01  0.2666E+02
   1.790  0.5577E+01  0.2672E+02
   1.800  0.5523E+01  0.2678E+02
   1.810  0.5460E+01  0.2683E+02
   1.820  0.5367E+01  0.2688E+02
   1.830  0.5391E+01  0.2694E+02
   1.840  0.5030E+01  0.2699E+02
   1.850  0.5190E+01  0.2704E+02
   1.860  0.7848E+01  0.2710E+02
   1.870  0.5408E+01  0.2717E+02
   1.880  0.6239E+01  0.2722E+02
   1.890  0.7190E+01  0.2729E+02
   1.900  0.5498E+01  0.2736E+02
   1.910  0.6010E+01  0.2742E+02
   1.920  0.7343E+01  0.2748E+02
   1.930  0.6839E+01  0.2756E+02
   1.940  0.5852E+01  0.2762E+02
   1.950  0.5469E+01  0.2768E+02
   1.960  0.5632E+01  0.2774E+02
   1.970  0.5163E+01  0.2779E+02
   1.980  0.3581E+01  0.2783E+02
   1.990  0.3513E+01  0.2787E+02
   2.000  0.3535E+01  0.2791E+02
   2.010  0.3476E+01  0.2794E+02
   2.020  0.3446E+01  0.2797E+02
   2.030  0.3441E+01  0.2801E+02
   2.040  0.3404E+01  0.2804E+02
   2.050  0.3406E+01  0.2808E+02
   2.060  0.3356E+01  0.2811E+02
   2.070  0.3334E+01  0.2814E+02
   2.080  0.3317E+01  0.2818E+02
   2.090  0.3272E+01  0.2821E+02
   2.100  0.3190E+01  0.2824E+02
   2.110  0.3169E+01  0.2827E+02
   2.120  0.3118E+01  0.2831E+02
   2.130  0.3108E+01  0.2834E+02
   2.140  0.3099E+01  0.2837E+02
   2.150  0.3099E+01  0.2840E+02
   2.160  0.3094E+01  0.2843E+02
   2.170  0.3207E+01  0.2846E+02
   2.180  0.3338E+01  0.2849E+02
   2.190  0.3438E+01  0.2853E+02
   2.200  0.3540E+01  0.2856E+02
   2.210  0.3592E+01  0.2860E+02
   2.220  0.3641E+01  0.2864E+02
   2.230  0.3732E+01  0.2867E+02
   2.240  0.3788E+01  0.2871E+02
   2.250  0.3823E+01  0.2875E+02
   2.260  0.3902E+01  0.2879E+02
   2.270  0.3929E+01  0.2883E+02
   2.280  0.4019E+01  0.2887E+02
   2.290  0.4051E+01  0.2891E+02
   2.300  0.3937E+01  0.2895E+02
   2.310  0.3939E+01  0.2898E+02
   2.320  0.3961E+01  0.2902E+02
   2.330  0.3954E+01  0.2906E+02
   2.340  0.3922E+01  0.2910E+02
   2.350  0.4048E+01  0.2914E+02
   2.360  0.4856E+01  0.2919E+02
   2.370  0.5082E+01  0.2924E+02
   2.380  0.5442E+01  0.2929E+02
   2.390  0.6112E+01  0.2935E+02
   2.400  0.6247E+01  0.2941E+02
   2.410  0.5944E+01  0.2947E+02
   2.420  0.6593E+01  0.2954E+02
   2.430  0.6328E+01  0.2960E+02
   2.440  0.6240E+01  0.2966E+02
   2.450  0.6007E+01  0.2973E+02
   2.460  0.5850E+01  0.2979E+02
   2.470  0.6679E+01  0.2985E+02
   2.480  0.4958E+01  0.2990E+02
   2.490  0.4168E+01  0.2995E+02
   2.500  0.3666E+01  0.2999E+02
   2.510  0.3174E+01  0.3002E+02
   2.520  0.2844E+01  0.3005E+02
   2.530  0.1803E+01  0.3008E+02
   2.540  0.4868E+00  0.3009E+02
   2.550  0.5127E+00  0.3009E+02
   2.560  0.5378E+00  0.3010E+02
   2.570  0.5609E+00  0.3010E+02
   2.580  0.5894E+00  0.3011E+02
   2.590  0.6169E+00  0.3011E+02
   2.600  0.6433E+00  0.3012E+02
   2.610  0.6796E+00  0.3013E+02
   2.620  0.7096E+00  0.3013E+02
   2.630  0.7446E+00  0.3014E+02
   2.640  0.7805E+00  0.3015E+02
   2.650  0.8117E+00  0.3016E+02
   2.660  0.8523E+00  0.3016E+02
   2.670  0.8856E+00  0.3017E+02
   2.680  0.9276E+00  0.3018E+02
   2.690  0.9648E+00  0.3019E+02
   2.700  0.1011E+01  0.3020E+02
   2.710  0.1056E+01  0.3021E+02
   2.720  0.1103E+01  0.3022E+02
   2.730  0.1154E+01  0.3023E+02
   2.740  0.1212E+01  0.3025E+02
   2.750  0.1269E+01  0.3026E+02
   2.760  0.1333E+01  0.3027E+02
   2.770  0.1397E+01  0.3028E+02
   2.780  0.1478E+01  0.3030E+02
   2.790  0.1553E+01  0.3031E+02
   2.800  0.1644E+01  0.3033E+02
   2.810  0.1747E+01  0.3035E+02
   2.820  0.1854E+01  0.3036E+02
   2.830  0.1977E+01  0.3038E+02
   2.840  0.2125E+01  0.3040E+02
   2.850  0.2296E+01  0.3043E+02
   2.860  0.2488E+01  0.3045E+02
   2.870  0.4382E+01  0.3049E+02
   2.880  0.5361E+01  0.3054E+02
   2.890  0.6771E+01  0.3060E+02
   2.900  0.9621E+01  0.3068E+02
   2.910  0.9017E+01  0.3077E+02
   2.920  0.9469E+01  0.3086E+02
   2.930  0.1029E+02  0.3096E+02
   2.940  0.1141E+02  0.3107E+02
   2.950  0.1301E+02  0.3119E+02
   2.960  0.1708E+02  0.3134E+02
   2.970  0.1913E+02  0.3154E+02
   2.980  0.1350E+02  0.3171E+02
   2.990  0.8887E+01  0.3181E+02
   3.000  0.6488E+01  0.3189E+02
   3.010  0.4260E+01  0.3194E+02
   3.020  0.2480E+01  0.3198E+02
   3.030  0.1069E+01  0.3200E+02
   3.040  0.0000E+00  0.3200E+02
   3.050  0.0000E+00  0.3200E+02
   3.060  0.0000E+00  0.3200E+02
   3.070  0.0000E+00  0.3200E+02
   3.080  0.0000E+00  0.3200E+02
   3.090  0.0000E+00  0.3200E+02
   3.100  0.0000E+00  0.3200E+02
   3.110  0.0000E+00  0.3200E+02
   3.120  0.0000E+00  0.3200E+02
   3.130  0.0000E+00  0.3200E+02
   3.140  0.0000E+00  0.3200E+02
   3.150  0.0000E+00  0.3200E+02
   3.160  0.0000E+00  0.3200E+02
   3.170  0.0000E+00  0.3200E+02
   3.180  0.0000E+00  0.3200E+02
   3.190  0.0000E+00  0.3200E+02
   3.200  0.0000E+00  0.3200E+02
   3.210  0.0000E+00  0.3200E+02
   3.220  0.0000E+00  0.3200E+02
   3.230  0.0000E+00  0.3200E+02
   3.240  0.0000E+00  0.3200E+02
   3.250  0.0000E+00  0.3200E+02
   3.260  0.0000E+00  0.3200E+02
   3.270  0.0000E+00  0.3200E+02
   3.280  0.0000E+00  0.3200E+02
   3.290  0.1003E-04  0.3200E+02
   3.300  0.2965E-03  0.3200E+02
   3.310  0.9779E-03  0.3200E+02
   3.320  0.2749E-02  0.3200E+02
   3.330  0.3743E-02  0.3200E+02
   3.340  0.4831E-02  0.3200E+02
   3.350  0.6013E-02  0.3200E+02
   3.360  0.7289E-02  0.3200E+02
   3.370  0.8817E-02  0.3200E+02
   3.380  0.1034E-01  0.3200E+02
   3.390  0.1165E-01  0.3200E+02
   3.400  0.1293E-01  0.3200E+02
   3.410  0.1428E-01  0.3200E+02
   3.420  0.1570E-01  0.3200E+02
   3.430  0.1720E-01  0.3200E+02
   3.440  0.1878E-01  0.3200E+02
   3.450  0.2043E-01  0.3200E+02
   3.460  0.2212E-01  0.3200E+02
   3.470  0.2380E-01  0.3200E+02
   3.480  0.2547E-01  0.3200E+02
   3.490  0.2713E-01  0.3200E+02
   3.500  0.2879E-01  0.3200E+02
   3.510  0.3051E-01  0.3200E+02
   3.520  0.3231E-01  0.3200E+02
   3.530  0.3418E-01  0.3200E+02
   3.540  0.3613E-01  0.3200E+02
   3.550  0.3815E-01  0.3200E+02
   3.560  0.4021E-01  0.3200E+02
   3.570  0.4222E-01  0.3201E+02
   3.580  0.4429E-01  0.3201E+02
   3.590  0.4641E-01  0.3201E+02
   3.600  0.4856E-01  0.3201E+02
   3.610  0.5074E-01  0.3201E+02
   3.620  0.5295E-01  0.3201E+02
   3.630  0.5521E-01  0.3201E+02
   3.640  0.5754E-01  0.3201E+02
   3.650  0.5996E-01  0.3201E+02
   3.660  0.6247E-01  0.3201E+02
   3.670  0.6507E-01  0.3201E+02
   3.680  0.6768E-01  0.3201E+02
   3.690  0.7029E-01  0.3201E+02
   3.700  0.7291E-01  0.3201E+02
   3.710  0.7562E-01  0.3201E+02
   3.720  0.7842E-01  0.3201E+02
   3.730  0.8128E-01  0.3201E+02
   3.740  0.8418E-01  0.3202E+02
   3.750  0.8714E-01  0.3202E+02
   3.760  0.9015E-01  0.3202E+02
   3.770  0.9324E-01  0.3202E+02
   3.780  0.9643E-01  0.3202E+02
   3.790  0.9973E-01  0.3202E+02
   3.800  0.1031E+00  0.3202E+02
   3.810  0.1065E+00  0.3202E+02
   3.820  0.1100E+00  0.3202E+02
   3.830  0.1135E+00  0.3202E+02
   3.840  0.1171E+00  0.3203E+02
   3.850  0.1208E+00  0.3203E+02
   3.860  0.1246E+00  0.3203E+02
   3.870  0.1284E+00  0.3203E+02
   3.880  0.1324E+00  0.3203E+02
   3.890  0.1364E+00  0.3203E+02
   3.900  0.1641E+00  0.3203E+02
   3.910  0.1916E+00  0.3204E+02
   3.920  0.2025E+00  0.3204E+02
   3.930  0.2133E+00  0.3204E+02
   3.940  0.2297E+00  0.3204E+02
   3.950  0.2115E+00  0.3204E+02
   3.960  0.2194E+00  0.3205E+02
   3.970  0.2272E+00  0.3205E+02
   3.980  0.2349E+00  0.3205E+02
   3.990  0.2361E+00  0.3205E+02
   4.000  0.2362E+00  0.3206E+02
   4.010  0.2364E+00  0.3206E+02
   4.020  0.2426E+00  0.3206E+02
   4.030  0.2496E+00  0.3206E+02
   4.040  0.2565E+00  0.3207E+02
   4.050  0.2577E+00  0.3207E+02
   4.060  0.2596E+00  0.3207E+02
   4.070  0.2629E+00  0.3207E+02
   4.080  0.2663E+00  0.3208E+02
   4.090  0.2703E+00  0.3208E+02
   4.100  0.2774E+00  0.3208E+02
   4.110  0.2843E+00  0.3208E+02
   4.120  0.2868E+00  0.3209E+02
   4.130  0.2881E+00  0.3209E+02
   4.140  0.2935E+00  0.3209E+02
   4.150  0.2981E+00  0.3210E+02
   4.160  0.3028E+00  0.3210E+02
   4.170  0.3075E+00  0.3210E+02
   4.180  0.3138E+00  0.3210E+02
   4.190  0.3215E+00  0.3211E+02
   4.200  0.3246E+00  0.3211E+02
   4.210  0.3280E+00  0.3211E+02
   4.220  0.3317E+00  0.3212E+02
   4.230  0.3393E+00  0.3212E+02
   4.240  0.3451E+00  0.3212E+02
   4.250  0.3509E+00  0.3213E+02
   4.260  0.3568E+00  0.3213E+02
   4.270  0.3641E+00  0.3213E+02
   4.280  0.3691E+00  0.3214E+02
   4.290  0.3747E+00  0.3214E+02
   4.300  0.3800E+00  0.3215E+02
   4.310  0.3855E+00  0.3215E+02
   4.320  0.3946E+00  0.3215E+02
   4.330  0.4020E+00  0.3216E+02
   4.340  0.4094E+00  0.3216E+02
   4.350  0.4170E+00  0.3217E+02
   4.360  0.4225E+00  0.3217E+02
   4.370  0.4303E+00  0.3217E+02
   4.380  0.4376E+00  0.3218E+02
   4.390  0.4445E+00  0.3218E+02
   4.400  0.4519E+00  0.3219E+02
   4.410  0.4633E+00  0.3219E+02
   4.420  0.4727E+00  0.3220E+02
   4.430  0.4814E+00  0.3220E+02
   4.440  0.4889E+00  0.3221E+02
   4.450  0.4989E+00  0.3221E+02
   4.460  0.5096E+00  0.3222E+02
   4.470  0.5183E+00  0.3222E+02
   4.480  0.5271E+00  0.3223E+02
   4.490  0.5394E+00  0.3223E+02
   4.500  0.5514E+00  0.3224E+02
   4.510  0.5623E+00  0.3224E+02
   4.520  0.5732E+00  0.3225E+02
   4.530  0.5858E+00  0.3225E+02
   4.540  0.5999E+00  0.3226E+02
   4.550  0.6119E+00  0.3227E+02
   4.560  0.6242E+00  0.3227E+02
   4.570  0.6405E+00  0.3228E+02
   4.580  0.6536E+00  0.3229E+02
   4.590  0.6665E+00  0.3229E+02
   4.600  0.6809E+00  0.3230E+02
   4.610  0.7004E+00  0.3231E+02
   4.620  0.7180E+00  0.3231E+02
   4.630  0.7351E+00  0.3232E+02
   4.640  0.7567E+00  0.3233E+02
   4.650  0.7754E+00  0.3234E+02
   4.660  0.7915E+00  0.3234E+02
   4.670  0.8064E+00  0.3235E+02
   4.680  0.8298E+00  0.3236E+02
   4.690  0.8546E+00  0.3237E+02
   4.700  0.8816E+00  0.3238E+02
   4.710  0.9126E+00  0.3239E+02
   4.720  0.9356E+00  0.3239E+02
   4.730  0.9564E+00  0.3240E+02
   4.740  0.9817E+00  0.3241E+02
   4.750  0.1002E+01  0.3242E+02
   4.760  0.1046E+01  0.3243E+02
   4.770  0.1090E+01  0.3244E+02
   4.780  0.1122E+01  0.3246E+02
   4.790  0.1152E+01  0.3247E+02
   4.800  0.1184E+01  0.3248E+02
   4.810  0.1210E+01  0.3249E+02
   4.820  0.1264E+01  0.3250E+02
   4.830  0.1322E+01  0.3252E+02
   4.840  0.1366E+01  0.3253E+02
   4.850  0.1407E+01  0.3254E+02
   4.860  0.1443E+01  0.3256E+02
   4.870  0.1498E+01  0.3257E+02
   4.880  0.1556E+01  0.3259E+02
   4.890  0.1628E+01  0.3260E+02
   4.900  0.1750E+01  0.3262E+02
   4.910  0.1827E+01  0.3264E+02
   4.920  0.1910E+01  0.3266E+02
   4.930  0.1949E+01  0.3268E+02
   4.940  0.2027E+01  0.3270E+02
   4.950  0.2104E+01  0.3272E+02
   4.960  0.2145E+01  0.3274E+02
   4.970  0.2200E+01  0.3276E+02
   4.980  0.2257E+01  0.3278E+02
   4.990  0.2327E+01  0.3281E+02
   5.000  0.2359E+01  0.3283E+02
   5.010  0.2398E+01  0.3285E+02
   5.020  0.2432E+01  0.3288E+02
   5.030  0.2487E+01  0.3290E+02
   5.040  0.2514E+01  0.3293E+02
   5.050  0.2530E+01  0.3295E+02
   5.060  0.2558E+01  0.3298E+02
   5.070  0.2598E+01  0.3300E+02
   5.080  0.2607E+01  0.3303E+02
   5.090  0.2637E+01  0.3306E+02
   5.100  0.2656E+01  0.3308E+02
   5.110  0.2690E+01  0.3311E+02
   5.120  0.2710E+01  0.3314E+02
   5.130  0.2741E+01  0.3316E+02
   5.140  0.2772E+01  0.3319E+02
   5.150  0.2822E+01  0.3322E+02
   5.160  0.2867E+01  0.3325E+02
   5.170  0.2921E+01  0.3328E+02
   5.180  0.2990E+01  0.3330E+02
   5.190  0.3083E+01  0.3334E+02
   5.200  0.3236E+01  0.3337E+02
   5.210  0.3434E+01  0.3340E+02
   5.220  0.3624E+01  0.3344E+02
   5.230  0.3778E+01  0.3347E+02
   5.240  0.3884E+01  0.3351E+02
   5.250  0.3672E+01  0.3355E+02
   5.260  0.3359E+01  0.3359E+02
   5.270  0.3156E+01  0.3362E+02
   5.280  0.3022E+01  0.3365E+02
   5.290  0.2905E+01  0.3368E+02
   5.300  0.2845E+01  0.3371E+02
   5.310  0.2790E+01  0.3373E+02
   5.320  0.2725E+01  0.3376E+02
   5.330  0.2702E+01  0.3379E+02
   5.340  0.2660E+01  0.3382E+02
   5.350  0.2649E+01  0.3384E+02
   5.360  0.2635E+01  0.3387E+02
   5.370  0.2633E+01  0.3390E+02
   5.380  0.2636E+01  0.3392E+02
   5.390  0.2623E+01  0.3395E+02
   5.400  0.2644E+01  0.3397E+02
   5.410  0.2689E+01  0.3400E+02
   5.420  0.2697E+01  0.3403E+02
   5.430  0.2717E+01  0.3406E+02
   5.440  0.2782E+01  0.3408E+02
   5.450  0.2792E+01  0.3411E+02
   5.460  0.2831E+01  0.3414E+02
   5.470  0.2866E+01  0.3417E+02
   5.480  0.2842E+01  0.3420E+02
   5.490  0.2833E+01  0.3422E+02
   5.500  0.2920E+01  0.3425E+02
   5.510  0.2818E+01  0.3428E+02
   5.520  0.2809E+01  0.3431E+02
   5.530  0.2820E+01  0.3434E+02
   5.540  0.2772E+01  0.3437E+02
   5.550  0.2788E+01  0.3439E+02
   5.560  0.2748E+01  0.3442E+02
   5.570  0.2793E+01  0.3445E+02
   5.580  0.2880E+01  0.3447E+02
   5.590  0.2091E+01  0.3450E+02
   5.600  0.1706E+01  0.3452E+02
   5.610  0.1721E+01  0.3453E+02
   5.620  0.1702E+01  0.3455E+02
   5.630  0.1706E+01  0.3457E+02
   5.640  0.1733E+01  0.3459E+02
   5.650  0.1753E+01  0.3460E+02
   5.660  0.1747E+01  0.3462E+02
   5.670  0.1758E+01  0.3464E+02
   5.680  0.1778E+01  0.3466E+02
   5.690  0.1805E+01  0.3467E+02
   5.700  0.1811E+01  0.3469E+02
   5.710  0.1826E+01  0.3471E+02
   5.720  0.1847E+01  0.3473E+02
   5.730  0.1877E+01  0.3475E+02
   5.740  0.1897E+01  0.3477E+02
   5.750  0.1920E+01  0.3479E+02
   5.760  0.1944E+01  0.3480E+02
   5.770  0.1980E+01  0.3482E+02
   5.780  0.2018E+01  0.3484E+02
   5.790  0.2051E+01  0.3486E+02
   5.800  0.2085E+01  0.3489E+02
   5.810  0.2129E+01  0.3491E+02
   5.820  0.2181E+01  0.3493E+02
   5.830  0.2243E+01  0.3495E+02
   5.840  0.2304E+01  0.3497E+02
   5.850  0.2373E+01  0.3500E+02
   5.860  0.2448E+01  0.3502E+02
   5.870  0.2569E+01  0.3505E+02
   5.880  0.2701E+01  0.3507E+02
   5.890  0.2847E+01  0.3510E+02
   5.900  0.3105E+01  0.3513E+02
   5.910  0.3471E+01  0.3516E+02
   5.920  0.5405E+01  0.3520E+02
   5.930  0.5808E+01  0.3526E+02
   5.940  0.4186E+01  0.3531E+02
   5.950  0.3586E+01  0.3535E+02
   5.960  0.3304E+01  0.3538E+02
   5.970  0.3036E+01  0.3542E+02
   5.980  0.2858E+01  0.3545E+02
   5.990  0.2683E+01  0.3547E+02
   6.000  0.2541E+01  0.3550E+02
   6.010  0.2434E+01  0.3552E+02
   6.020  0.2316E+01  0.3555E+02
   6.030  0.2225E+01  0.3557E+02
   6.040  0.2125E+01  0.3559E+02
   6.050  0.2050E+01  0.3561E+02
   6.060  0.1962E+01  0.3563E+02
   6.070  0.1910E+01  0.3565E+02
   6.080  0.1830E+01  0.3567E+02
   6.090  0.1783E+01  0.3569E+02
   6.100  0.1690E+01  0.3571E+02
   6.110  0.1655E+01  0.3572E+02
   6.120  0.1605E+01  0.3574E+02
   6.130  0.1559E+01  0.3576E+02
   6.140  0.1491E+01  0.3577E+02
   6.150  0.1446E+01  0.3579E+02
   6.160  0.1423E+01  0.3580E+02
   6.170  0.1372E+01  0.3581E+02
   6.180  0.1326E+01  0.3583E+02
   6.190  0.1266E+01  0.3584E+02
   6.200  0.1270E+01  0.3585E+02
   6.210  0.1223E+01  0.3587E+02
   6.220  0.1175E+01  0.3588E+02
   6.230  0.1140E+01  0.3589E+02
   6.240  0.1119E+01  0.3590E+02
   6.250  0.1093E+01  0.3591E+02
   6.260  0.1051E+01  0.3592E+02
   6.270  0.1023E+01  0.3593E+02
   6.280  0.1006E+01  0.3594E+02
   6.290  0.9635E+00  0.3595E+02
   6.300  0.9449E+00  0.3596E+02
   6.310  0.9288E+00  0.3597E+02
   6.320  0.8842E+00  0.3598E+02
   6.330  0.8682E+00  0.3599E+02
   6.340  0.6168E+00  0.3600E+02
   6.350  0.0000E+00  0.3600E+02
   6.360  0.0000E+00  0.3600E+02
   6.370  0.0000E+00  0.3600E+02
   6.380  0.0000E+00  0.3600E+02
   6.390  0.0000E+00  0.3600E+02
   6.400  0.0000E+00  0.3600E+02
   6.410  0.0000E+00  0.3600E+02
   6.420  0.0000E+00  0.3600E+02
   6.430  0.0000E+00  0.3600E+02
   6.440  0.1925E-03  0.3600E+02
   6.450  0.1117E-02  0.3600E+02
   6.460  0.3407E-02  0.3600E+02
   6.470  0.4851E-02  0.3600E+02
   6.480  0.6449E-02  0.3600E+02
   6.490  0.8199E-02  0.3600E+02
   6.500  0.1031E-01  0.3600E+02
   6.510  0.1220E-01  0.3600E+02
   6.520  0.1380E-01  0.3600E+02
   6.530  0.1548E-01  0.3600E+02
   6.540  0.1725E-01  0.3600E+02
   6.550  0.1912E-01  0.3600E+02
   6.560  0.2108E-01  0.3600E+02
   6.570  0.2313E-01  0.3600E+02
   6.580  0.2512E-01  0.3600E+02
   6.590  0.2706E-01  0.3600E+02
   6.600  0.2896E-01  0.3600E+02
   6.610  0.3083E-01  0.3600E+02
   6.620  0.3272E-01  0.3600E+02
   6.630  0.3468E-01  0.3600E+02
   6.640  0.3671E-01  0.3600E+02
   6.650  0.3882E-01  0.3600E+02
   6.660  0.4100E-01  0.3600E+02
   6.670  0.4323E-01  0.3600E+02
   6.680  0.4535E-01  0.3601E+02
   6.690  0.4745E-01  0.3601E+02
   6.700  0.4958E-01  0.3601E+02
   6.710  0.5173E-01  0.3601E+02
   6.720  0.5389E-01  0.3601E+02
   6.730  0.5607E-01  0.3601E+02
   6.740  0.5825E-01  0.3601E+02
   6.750  0.6049E-01  0.3601E+02
   6.760  0.6279E-01  0.3601E+02
   6.770  0.6515E-01  0.3601E+02
   6.780  0.6757E-01  0.3601E+02
   6.790  0.7005E-01  0.3601E+02
   6.800  0.7249E-01  0.3601E+02
   6.810  0.7489E-01  0.3601E+02
   6.820  0.7727E-01  0.3601E+02
   6.830  0.7967E-01  0.3601E+02
   6.840  0.8214E-01  0.3602E+02
   6.850  0.8463E-01  0.3602E+02
   6.860  0.8715E-01  0.3602E+02
   6.870  0.8969E-01  0.3602E+02
   6.880  0.9227E-01  0.3602E+02
   6.890  0.9487E-01  0.3602E+02
   6.900  0.9750E-01  0.3602E+02
   6.910  0.1002E+00  0.3602E+02
   6.920  0.1029E+00  0.3602E+02
   6.930  0.1058E+00  0.3602E+02
   6.940  0.1086E+00  0.3602E+02
   6.950  0.1114E+00  0.3603E+02
   6.960  0.1142E+00  0.3603E+02
   6.970  0.1393E+00  0.3603E+02
   6.980  0.1660E+00  0.3603E+02
   6.990  0.1748E+00  0.3603E+02
   7.000  0.1834E+00  0.3603E+02
   7.010  0.1974E+00  0.3604E+02
   7.020  0.1752E+00  0.3604E+02
   7.030  0.1803E+00  0.3604E+02
   7.040  0.1852E+00  0.3604E+02
   7.050  0.1900E+00  0.3604E+02
   7.060  0.1946E+00  0.3604E+02
   7.070  0.1871E+00  0.3605E+02
   7.080  0.1850E+00  0.3605E+02
   7.090  0.1844E+00  0.3605E+02
   7.100  0.1878E+00  0.3605E+02
   7.110  0.1912E+00  0.3605E+02
   7.120  0.1944E+00  0.3606E+02
   7.130  0.1951E+00  0.3606E+02
   7.140  0.1879E+00  0.3606E+02
   7.150  0.1908E+00  0.3606E+02
   7.160  0.1911E+00  0.3606E+02
   7.170  0.1914E+00  0.3607E+02
   7.180  0.1917E+00  0.3607E+02
   7.190  0.1942E+00  0.3607E+02
   7.200  0.1968E+00  0.3607E+02
   7.210  0.1992E+00  0.3607E+02
   7.220  0.1977E+00  0.3608E+02
   7.230  0.1963E+00  0.3608E+02
   7.240  0.1950E+00  0.3608E+02
   7.250  0.1968E+00  0.3608E+02
   7.260  0.1977E+00  0.3608E+02
   7.270  0.1986E+00  0.3609E+02
   7.280  0.1995E+00  0.3609E+02
   7.290  0.2003E+00  0.3609E+02
   7.300  0.2016E+00  0.3609E+02
   7.310  0.2038E+00  0.3609E+02
   7.320  0.2058E+00  0.3610E+02
   7.330  0.2047E+00  0.3610E+02
   7.340  0.2034E+00  0.3610E+02
   7.350  0.2034E+00  0.3610E+02
   7.360  0.2034E+00  0.3610E+02
   7.370  0.2034E+00  0.3611E+02
   7.380  0.2057E+00  0.3611E+02
   7.390  0.2067E+00  0.3611E+02
   7.400  0.2078E+00  0.3611E+02
   7.410  0.2088E+00  0.3611E+02
   7.420  0.3246E+00  0.3612E+02
   7.430  0.6589E+00  0.3612E+02
   7.440  0.7106E+00  0.3613E+02
   7.450  0.7987E+00  0.3614E+02
   7.460  0.8797E+00  0.3615E+02
   7.470  0.7700E+00  0.3615E+02
   7.480  0.8022E+00  0.3616E+02
   7.490  0.8465E+00  0.3617E+02
   7.500  0.8083E+00  0.3618E+02
   7.510  0.8460E+00  0.3619E+02
   7.520  0.8614E+00  0.3620E+02
   7.530  0.8268E+00  0.3620E+02
   7.540  0.8562E+00  0.3621E+02
   7.550  0.8241E+00  0.3622E+02
   7.560  0.8229E+00  0.3623E+02
   7.570  0.8459E+00  0.3624E+02
   7.580  0.8701E+00  0.3625E+02
   7.590  0.8910E+00  0.3625E+02
   7.600  0.8826E+00  0.3626E+02
   7.610  0.8732E+00  0.3627E+02
   7.620  0.8630E+00  0.3628E+02
   7.630  0.8574E+00  0.3629E+02
   7.640  0.8629E+00  0.3630E+02
   7.650  0.8859E+00  0.3631E+02
   7.660  0.9082E+00  0.3632E+02
   7.670  0.9052E+00  0.3633E+02
   7.680  0.9013E+00  0.3633E+02
   7.690  0.9194E+00  0.3634E+02
   7.700  0.9293E+00  0.3635E+02
   7.710  0.9255E+00  0.3636E+02
   7.720  0.9261E+00  0.3637E+02
   7.730  0.9290E+00  0.3638E+02
   7.740  0.9378E+00  0.3639E+02
   7.750  0.9395E+00  0.3640E+02
   7.760  0.9425E+00  0.3641E+02
   7.770  0.9463E+00  0.3642E+02
   7.780  0.9662E+00  0.3643E+02
   7.790  0.9893E+00  0.3644E+02
   7.800  0.1008E+01  0.3645E+02
   7.810  0.1005E+01  0.3646E+02
   7.820  0.1000E+01  0.3647E+02
   7.830  0.1005E+01  0.3648E+02
   7.840  0.1017E+01  0.3649E+02
   7.850  0.1027E+01  0.3650E+02
   7.860  0.1063E+01  0.3651E+02
   7.870  0.1103E+01  0.3652E+02
   7.880  0.1136E+01  0.3653E+02
   7.890  0.1157E+01  0.3654E+02
   7.900  0.1172E+01  0.3655E+02
   7.910  0.1183E+01  0.3657E+02
   7.920  0.1231E+01  0.3658E+02
   7.930  0.1255E+01  0.3659E+02
   7.940  0.1267E+01  0.3660E+02
   7.950  0.1290E+01  0.3662E+02
   7.960  0.1316E+01  0.3663E+02
   7.970  0.1345E+01  0.3664E+02
   7.980  0.1370E+01  0.3666E+02
   7.990  0.1421E+01  0.3667E+02
   8.000  0.1466E+01  0.3668E+02
   8.010  0.1542E+01  0.3670E+02
   8.020  0.1609E+01  0.3671E+02
   8.030  0.1722E+01  0.3673E+02
   8.040  0.1945E+01  0.3675E+02
   8.050  0.3661E+01  0.3678E+02
   8.060  0.2820E+01  0.3682E+02
   8.070  0.2343E+01  0.3684E+02
   8.080  0.2083E+01  0.3686E+02
   8.090  0.1901E+01  0.3688E+02
   8.100  0.1809E+01  0.3690E+02
   8.110  0.1732E+01  0.3692E+02
   8.120  0.1642E+01  0.3694E+02
   8.130  0.1613E+01  0.3695E+02
   8.140  0.1587E+01  0.3697E+02
   8.150  0.1527E+01  0.3698E+02
   8.160  0.1507E+01  0.3700E+02
   8.170  0.1492E+01  0.3701E+02
   8.180  0.1467E+01  0.3703E+02
   8.190  0.1437E+01  0.3704E+02
   8.200  0.1411E+01  0.3706E+02
   8.210  0.1419E+01  0.3707E+02
   8.220  0.1567E+01  0.3709E+02
   8.230  0.1717E+01  0.3710E+02
   8.240  0.1731E+01  0.3712E+02
   8.250  0.1830E+01  0.3714E+02
   8.260  0.1923E+01  0.3716E+02
   8.270  0.1949E+01  0.3718E+02
   8.280  0.1973E+01  0.3720E+02
   8.290  0.1951E+01  0.3721E+02
   8.300  0.1943E+01  0.3723E+02
   8.310  0.1951E+01  0.3725E+02
   8.320  0.1943E+01  0.3727E+02
   8.330  0.1940E+01  0.3729E+02
   8.340  0.1925E+01  0.3731E+02
   8.350  0.1922E+01  0.3733E+02
   8.360  0.1920E+01  0.3735E+02
   8.370  0.1919E+01  0.3737E+02
   8.380  0.1941E+01  0.3739E+02
   8.390  0.1941E+01  0.3741E+02
   8.400  0.1938E+01  0.3743E+02
   8.410  0.1930E+01  0.3745E+02
   8.420  0.1922E+01  0.3747E+02
   8.430  0.1923E+01  0.3749E+02
   8.440  0.1929E+01  0.3750E+02
   8.450  0.1934E+01  0.3752E+02
   8.460  0.1934E+01  0.3754E+02
   8.470  0.1942E+01  0.3756E+02
   8.480  0.1953E+01  0.3758E+02
   8.490  0.1962E+01  0.3760E+02
   8.500  0.1957E+01  0.3762E+02
   8.510  0.1965E+01  0.3764E+02
   8.520  0.1967E+01  0.3766E+02
   8.530  0.1970E+01  0.3768E+02
   8.540  0.1968E+01  0.3770E+02
   8.550  0.1983E+01  0.3772E+02
   8.560  0.2009E+01  0.3774E+02
   8.570  0.2019E+01  0.3776E+02
   8.580  0.2011E+01  0.3778E+02
   8.590  0.2020E+01  0.3780E+02
   8.600  0.2040E+01  0.3782E+02
   8.610  0.2056E+01  0.3784E+02
   8.620  0.2067E+01  0.3786E+02
   8.630  0.2072E+01  0.3788E+02
   8.640  0.2096E+01  0.3790E+02
   8.650  0.2107E+01  0.3792E+02
   8.660  0.2114E+01  0.3795E+02
   8.670  0.2175E+01  0.3797E+02
   8.680  0.2178E+01  0.3799E+02
   8.690  0.2192E+01  0.3801E+02
   8.700  0.2250E+01  0.3803E+02
   8.710  0.2300E+01  0.3806E+02
   8.720  0.2324E+01  0.3808E+02
   8.730  0.2384E+01  0.3810E+02
   8.740  0.2444E+01  0.3813E+02
   8.750  0.2600E+01  0.3815E+02
   8.760  0.3036E+01  0.3818E+02
   8.770  0.4530E+01  0.3822E+02
   8.780  0.3698E+01  0.3826E+02
   8.790  0.3219E+01  0.3830E+02
   8.800  0.2983E+01  0.3833E+02
   8.810  0.2832E+01  0.3836E+02
   8.820  0.2709E+01  0.3839E+02
   8.830  0.2623E+01  0.3841E+02
   8.840  0.2528E+01  0.3844E+02
   8.850  0.2479E+01  0.3846E+02
   8.860  0.2452E+01  0.3849E+02
   8.870  0.2428E+01  0.3851E+02
   8.880  0.2380E+01  0.3854E+02
   8.890  0.2379E+01  0.3856E+02
   8.900  0.2382E+01  0.3858E+02
   8.910  0.2379E+01  0.3861E+02
   8.920  0.2371E+01  0.3863E+02
   8.930  0.2395E+01  0.3866E+02
   8.940  0.2363E+01  0.3868E+02
   8.950  0.2325E+01  0.3870E+02
   8.960  0.2273E+01  0.3873E+02
   8.970  0.2229E+01  0.3875E+02
   8.980  0.2283E+01  0.3877E+02
   8.990  0.2196E+01  0.3879E+02
   9.000  0.2174E+01  0.3882E+02
   9.010  0.2143E+01  0.3884E+02
   9.020  0.2069E+01  0.3886E+02
   9.030  0.2017E+01  0.3888E+02
   9.040  0.1967E+01  0.3890E+02
   9.050  0.1913E+01  0.3892E+02
   9.060  0.1997E+01  0.3894E+02
   9.070  0.2091E+01  0.3896E+02
   9.080  0.2175E+01  0.3898E+02
   9.090  0.2263E+01  0.3900E+02
   9.100  0.2358E+01  0.3902E+02
   9.110  0.2463E+01  0.3905E+02
   9.120  0.2516E+01  0.3907E+02
   9.130  0.2453E+01  0.3910E+02
   9.140  0.2443E+01  0.3912E+02
   9.150  0.2487E+01  0.3915E+02
   9.160  0.2472E+01  0.3917E+02
   9.170  0.2459E+01  0.3920E+02
   9.180  0.2375E+01  0.3922E+02
   9.190  0.2382E+01  0.3925E+02
   9.200  0.2256E+01  0.3927E+02
   9.210  0.2322E+01  0.3929E+02
   9.220  0.2216E+01  0.3931E+02
   9.230  0.2173E+01  0.3934E+02
   9.240  0.2133E+01  0.3936E+02
   9.250  0.2101E+01  0.3938E+02
   9.260  0.2085E+01  0.3940E+02
   9.270  0.2054E+01  0.3942E+02
   9.280  0.2028E+01  0.3944E+02
   9.290  0.2010E+01  0.3946E+02
   9.300  0.1999E+01  0.3948E+02
   9.310  0.1992E+01  0.3950E+02
   9.320  0.1965E+01  0.3952E+02
   9.330  0.1888E+01  0.3954E+02
   9.340  0.1791E+01  0.3956E+02
   9.350  0.1789E+01  0.3958E+02
   9.360  0.1781E+01  0.3959E+02
   9.370  0.1769E+01  0.3961E+02
   9.380  0.1745E+01  0.3963E+02
   9.390  0.1711E+01  0.3965E+02
   9.400  0.1680E+01  0.3966E+02
   9.410  0.1650E+01  0.3968E+02
   9.420  0.1655E+01  0.3970E+02
   9.430  0.1631E+01  0.3971E+02
   9.440  0.1616E+01  0.3973E+02
   9.450  0.1602E+01  0.3975E+02
   9.460  0.1583E+01  0.3976E+02
   9.470  0.1598E+01  0.3978E+02
   9.480  0.1587E+01  0.3979E+02
   9.490  0.1554E+01  0.3981E+02
   9.500  0.1582E+01  0.3982E+02
   9.510  0.1593E+01  0.3984E+02
   9.520  0.1564E+01  0.3986E+02
   9.530  0.1528E+01  0.3987E+02
   9.540  0.1527E+01  0.3989E+02
   9.550  0.1524E+01  0.3990E+02
   9.560  0.1507E+01  0.3992E+02
   9.570  0.1491E+01  0.3993E+02
   9.580  0.1527E+01  0.3995E+02
   9.590  0.1535E+01  0.3996E+02
   9.600  0.1601E+01  0.3998E+02
   9.610  0.1650E+01  0.3999E+02
   9.620  0.1687E+01  0.4001E+02
   9.630  0.1722E+01  0.4003E+02
   9.640  0.1762E+01  0.4005E+02
   9.650  0.1742E+01  0.4006E+02
   9.660  0.1747E+01  0.4008E+02
   9.670  0.1874E+01  0.4010E+02
   9.680  0.1873E+01  0.4012E+02
   9.690  0.1920E+01  0.4014E+02
   9.700  0.2083E+01  0.4016E+02
   9.710  0.2445E+01  0.4018E+02
   9.720  0.2726E+01  0.4021E+02
   9.730  0.2768E+01  0.4023E+02
   9.740  0.2927E+01  0.4026E+02
   9.750  0.3061E+01  0.4029E+02
   9.760  0.3553E+01  0.4032E+02
   9.770  0.3101E+01  0.4036E+02
   9.780  0.2620E+01  0.4038E+02
   9.790  0.2439E+01  0.4041E+02
   9.800  0.2348E+01  0.4043E+02
   9.810  0.2205E+01  0.4046E+02
   9.820  0.2174E+01  0.4048E+02
   9.830  0.2141E+01  0.4050E+02
   9.840  0.2136E+01  0.4052E+02
   9.850  0.2078E+01  0.4054E+02
   9.860  0.2065E+01  0.4056E+02
   9.870  0.2058E+01  0.4058E+02
   9.880  0.2061E+01  0.4060E+02
   9.890  0.2098E+01  0.4062E+02
   9.900  0.2139E+01  0.4065E+02
   9.910  0.2179E+01  0.4067E+02
   9.920  0.2226E+01  0.4069E+02
   9.930  0.2276E+01  0.4071E+02
   9.940  0.2341E+01  0.4074E+02
   9.950  0.2472E+01  0.4076E+02
   9.960  0.2691E+01  0.4078E+02
   9.970  0.2785E+01  0.4081E+02
   9.980  0.2917E+01  0.4084E+02
   9.990  0.3142E+01  0.4087E+02
  10.000  0.3359E+01  0.4090E+02
  10.010  0.3399E+01  0.4094E+02
  10.020  0.3181E+01  0.4097E+02
  10.030  0.2895E+01  0.4100E+02
  10.040  0.2737E+01  0.4103E+02
  10.050  0.2589E+01  0.4105E+02
  10.060  0.2462E+01  0.4108E+02
  10.070  0.2377E+01  0.4110E+02
  10.080  0.2377E+01  0.4113E+02
  10.090  0.2469E+01  0.4115E+02
  10.100  0.2589E+01  0.4118E+02
  10.110  0.2585E+01  0.4120E+02
  10.120  0.2678E+01  0.4123E+02
  10.130  0.2713E+01  0.4126E+02
  10.140  0.2748E+01  0.4128E+02
  10.150  0.2855E+01  0.4131E+02
  10.160  0.2521E+01  0.4134E+02
  10.170  0.2428E+01  0.4136E+02
  10.180  0.2337E+01  0.4139E+02
  10.190  0.2353E+01  0.4141E+02
  10.200  0.2368E+01  0.4143E+02
  10.210  0.2383E+01  0.4146E+02
  10.220  0.2403E+01  0.4148E+02
  10.230  0.2398E+01  0.4151E+02
  10.240  0.2400E+01  0.4153E+02
  10.250  0.2435E+01  0.4155E+02
  10.260  0.2453E+01  0.4158E+02
  10.270  0.2484E+01  0.4160E+02
  10.280  0.2498E+01  0.4163E+02
  10.290  0.2573E+01  0.4165E+02
  10.300  0.2651E+01  0.4168E+02
  10.310  0.2763E+01  0.4171E+02
  10.320  0.3004E+01  0.4174E+02
  10.330  0.3264E+01  0.4177E+02
  10.340  0.3233E+01  0.4180E+02
  10.350  0.3413E+01  0.4183E+02
  10.360  0.3436E+01  0.4187E+02
  10.370  0.3591E+01  0.4190E+02
  10.380  0.3707E+01  0.4194E+02
  10.390  0.3499E+01  0.4197E+02
  10.400  0.3493E+01  0.4201E+02
  10.410  0.3437E+01  0.4204E+02
  10.420  0.3348E+01  0.4208E+02
  10.430  0.3321E+01  0.4211E+02
  10.440  0.3313E+01  0.4214E+02
  10.450  0.3291E+01  0.4218E+02
  10.460  0.3283E+01  0.4221E+02
  10.470  0.3276E+01  0.4224E+02
  10.480  0.3262E+01  0.4228E+02
  10.490  0.3234E+01  0.4231E+02
  10.500  0.3255E+01  0.4234E+02
  10.510  0.3249E+01  0.4237E+02
  10.520  0.3251E+01  0.4241E+02
  10.530  0.3170E+01  0.4244E+02
  10.540  0.3102E+01  0.4247E+02
  10.550  0.3054E+01  0.4250E+02
  10.560  0.2997E+01  0.4253E+02
  10.570  0.2950E+01  0.4256E+02
  10.580  0.2923E+01  0.4259E+02
  10.590  0.2919E+01  0.4262E+02
  10.600  0.2930E+01  0.4265E+02
  10.610  0.2912E+01  0.4268E+02
  10.620  0.2851E+01  0.4271E+02
  10.630  0.2796E+01  0.4273E+02
  10.640  0.2766E+01  0.4276E+02
  10.650  0.2769E+01  0.4279E+02
  10.660  0.2780E+01  0.4282E+02
  10.670  0.2829E+01  0.4285E+02
  10.680  0.2860E+01  0.4287E+02
  10.690  0.2891E+01  0.4290E+02
  10.700  0.2931E+01  0.4293E+02
  10.710  0.3632E+01  0.4296E+02
  10.720  0.3922E+01  0.4300E+02
  10.730  0.4056E+01  0.4304E+02
  10.740  0.3783E+01  0.4308E+02
  10.750  0.3396E+01  0.4312E+02
  10.760  0.3352E+01  0.4315E+02
  10.770  0.3354E+01  0.4319E+02
  10.780  0.3481E+01  0.4322E+02
  10.790  0.3099E+01  0.4325E+02
  10.800  0.2976E+01  0.4328E+02
  10.810  0.2899E+01  0.4331E+02
  10.820  0.2848E+01  0.4334E+02
  10.830  0.2804E+01  0.4337E+02
  10.840  0.2734E+01  0.4340E+02
  10.850  0.2733E+01  0.4343E+02
  10.860  0.2675E+01  0.4345E+02
  10.870  0.2566E+01  0.4348E+02
  10.880  0.2517E+01  0.4350E+02
  10.890  0.2586E+01  0.4353E+02
  10.900  0.2366E+01  0.4355E+02
  10.910  0.2214E+01  0.4358E+02
  10.920  0.2070E+01  0.4360E+02
  10.930  0.2012E+01  0.4362E+02
  10.940  0.1831E+01  0.4364E+02
  10.950  0.1717E+01  0.4366E+02
  10.960  0.1587E+01  0.4367E+02
  10.970  0.1474E+01  0.4369E+02
  10.980  0.1376E+01  0.4370E+02
  10.990  0.1344E+01  0.4371E+02
  11.000  0.1278E+01  0.4373E+02
  11.010  0.1248E+01  0.4374E+02
  11.020  0.1227E+01  0.4375E+02
  11.030  0.1202E+01  0.4376E+02
  11.040  0.1209E+01  0.4378E+02
  11.050  0.1272E+01  0.4379E+02
  11.060  0.1422E+01  0.4380E+02
  11.070  0.1538E+01  0.4382E+02
  11.080  0.1639E+01  0.4383E+02
  11.090  0.1578E+01  0.4385E+02
  11.100  0.1689E+01  0.4387E+02
  11.110  0.1811E+01  0.4388E+02
  11.120  0.1840E+01  0.4390E+02
  11.130  0.1875E+01  0.4392E+02
  11.140  0.1821E+01  0.4394E+02
  11.150  0.1826E+01  0.4396E+02
  11.160  0.1908E+01  0.4398E+02
  11.170  0.1845E+01  0.4399E+02
  11.180  0.1843E+01  0.4401E+02
  11.190  0.1851E+01  0.4403E+02
  11.200  0.1823E+01  0.4405E+02
  11.210  0.1855E+01  0.4407E+02
  11.220  0.1853E+01  0.4409E+02
  11.230  0.1862E+01  0.4410E+02
  11.240  0.1877E+01  0.4412E+02
  11.250  0.1902E+01  0.4414E+02
  11.260  0.1949E+01  0.4416E+02
  11.270  0.1978E+01  0.4418E+02
  11.280  0.2004E+01  0.4420E+02
  11.290  0.2041E+01  0.4422E+02
  11.300  0.2097E+01  0.4424E+02
  11.310  0.2178E+01  0.4426E+02
  11.320  0.2222E+01  0.4429E+02
  11.330  0.2325E+01  0.4431E+02
  11.340  0.2481E+01  0.4433E+02
  11.350  0.2647E+01  0.4436E+02
  11.360  0.2721E+01  0.4438E+02
  11.370  0.2940E+01  0.4441E+02
  11.380  0.3246E+01  0.4444E+02
  11.390  0.3538E+01  0.4448E+02
  11.400  0.3690E+01  0.4451E+02
  11.410  0.3645E+01  0.4455E+02
  11.420  0.3593E+01  0.4459E+02
  11.430  0.3568E+01  0.4462E+02
  11.440  0.3604E+01  0.4466E+02
  11.450  0.3808E+01  0.4470E+02
  11.460  0.3900E+01  0.4473E+02
  11.470  0.4030E+01  0.4477E+02
  11.480  0.4217E+01  0.4481E+02
  11.490  0.4456E+01  0.4486E+02
  11.500  0.4907E+01  0.4491E+02
  11.510  0.5528E+01  0.4496E+02
  11.520  0.5675E+01  0.4502E+02
  11.530  0.4655E+01  0.4507E+02
  11.540  0.4319E+01  0.4511E+02
  11.550  0.4440E+01  0.4516E+02
  11.560  0.4019E+01  0.4520E+02
  11.570  0.3728E+01  0.4524E+02
  11.580  0.3525E+01  0.4528E+02
  11.590  0.3327E+01  0.4531E+02
  11.600  0.3186E+01  0.4534E+02
  11.610  0.3067E+01  0.4537E+02
  11.620  0.2889E+01  0.4540E+02
  11.630  0.2876E+01  0.4543E+02
  11.640  0.2753E+01  0.4546E+02
  11.650  0.2513E+01  0.4549E+02
  11.660  0.2343E+01  0.4551E+02
  11.670  0.2067E+01  0.4553E+02
  11.680  0.2030E+01  0.4555E+02
  11.690  0.2029E+01  0.4558E+02
  11.700  0.1996E+01  0.4560E+02
  11.710  0.2265E+01  0.4562E+02
  11.720  0.2954E+01  0.4564E+02
  11.730  0.3667E+01  0.4568E+02
  11.740  0.4360E+01  0.4572E+02
  11.750  0.3935E+01  0.4576E+02
  11.760  0.3903E+01  0.4580E+02
  11.770  0.3965E+01  0.4584E+02
  11.780  0.3779E+01  0.4588E+02
  11.790  0.3772E+01  0.4591E+02
  11.800  0.3834E+01  0.4595E+02
  11.810  0.3943E+01  0.4599E+02
  11.820  0.3992E+01  0.4603E+02
  11.830  0.4140E+01  0.4607E+02
  11.840  0.4279E+01  0.4611E+02
  11.850  0.4679E+01  0.4616E+02
  11.860  0.3361E+01  0.4621E+02
  11.870  0.3510E+01  0.4624E+02
  11.880  0.3713E+01  0.4628E+02
  11.890  0.3709E+01  0.4631E+02
  11.900  0.3538E+01  0.4635E+02
  11.910  0.3484E+01  0.4638E+02
  11.920  0.3368E+01  0.4642E+02
  11.930  0.3249E+01  0.4645E+02
  11.940  0.3266E+01  0.4648E+02
  11.950  0.3315E+01  0.4652E+02
  11.960  0.3399E+01  0.4655E+02
  11.970  0.3542E+01  0.4659E+02
  11.980  0.3651E+01  0.4662E+02
  11.990  0.3843E+01  0.4666E+02
  12.000  0.4273E+01  0.4670E+02
  12.010  0.4569E+01  0.4675E+02
  12.020  0.4467E+01  0.4679E+02
  12.030  0.4426E+01  0.4684E+02
  12.040  0.4317E+01  0.4688E+02
  12.050  0.4322E+01  0.4692E+02
  12.060  0.4389E+01  0.4697E+02
  12.070  0.4443E+01  0.4701E+02
  12.080  0.4419E+01  0.4706E+02
  12.090  0.4409E+01  0.4710E+02
  12.100  0.4245E+01  0.4714E+02
  12.110  0.4158E+01  0.4718E+02
  12.120  0.4190E+01  0.4723E+02
  12.130  0.4307E+01  0.4727E+02
  12.140  0.4279E+01  0.4731E+02
  12.150  0.4189E+01  0.4735E+02
  12.160  0.4112E+01  0.4740E+02
  12.170  0.3957E+01  0.4744E+02
  12.180  0.3688E+01  0.4747E+02
  12.190  0.3538E+01  0.4751E+02
  12.200  0.3431E+01  0.4755E+02
  12.210  0.3349E+01  0.4758E+02
  12.220  0.3337E+01  0.4761E+02
  12.230  0.3297E+01  0.4765E+02
  12.240  0.3298E+01  0.4768E+02
  12.250  0.3322E+01  0.4771E+02
  12.260  0.3387E+01  0.4775E+02
  12.270  0.3510E+01  0.4778E+02
  12.280  0.3747E+01  0.4782E+02
  12.290  0.3994E+01  0.4785E+02
  12.300  0.4329E+01  0.4790E+02
  12.310  0.4667E+01  0.4794E+02
  12.320  0.5067E+01  0.4799E+02
  12.330  0.5568E+01  0.4804E+02
  12.340  0.6610E+01  0.4810E+02
  12.350  0.6752E+01  0.4817E+02
  12.360  0.4008E+01  0.4822E+02
  12.370  0.3134E+01  0.4826E+02
  12.380  0.3123E+01  0.4829E+02
  12.390  0.3158E+01  0.4832E+02
  12.400  0.3213E+01  0.4835E+02
  12.410  0.3466E+01  0.4839E+02
  12.420  0.3472E+01  0.4842E+02
  12.430  0.3679E+01  0.4846E+02
  12.440  0.3690E+01  0.4849E+02
  12.450  0.3805E+01  0.4853E+02
  12.460  0.3908E+01  0.4857E+02
  12.470  0.4038E+01  0.4861E+02
  12.480  0.4075E+01  0.4865E+02
  12.490  0.3958E+01  0.4869E+02
  12.500  0.3915E+01  0.4873E+02
  12.510  0.3793E+01  0.4877E+02
  12.520  0.3722E+01  0.4881E+02
  12.530  0.3698E+01  0.4884E+02
  12.540  0.3632E+01  0.4888E+02
  12.550  0.3556E+01  0.4892E+02
  12.560  0.3573E+01  0.4895E+02
  12.570  0.3573E+01  0.4899E+02
  12.580  0.3544E+01  0.4902E+02
  12.590  0.3555E+01  0.4906E+02
  12.600  0.3560E+01  0.4910E+02
  12.610  0.3520E+01  0.4913E+02
  12.620  0.3538E+01  0.4917E+02
  12.630  0.3559E+01  0.4920E+02
  12.640  0.3544E+01  0.4924E+02
  12.650  0.3582E+01  0.4927E+02
  12.660  0.3620E+01  0.4931E+02
  12.670  0.3771E+01  0.4935E+02
  12.680  0.3880E+01  0.4938E+02
  12.690  0.3609E+01  0.4942E+02
  12.700  0.3477E+01  0.4946E+02
  12.710  0.3384E+01  0.4949E+02
  12.720  0.3288E+01  0.4952E+02
  12.730  0.3236E+01  0.4956E+02
  12.740  0.3179E+01  0.4959E+02
  12.750  0.3126E+01  0.4962E+02
  12.760  0.3106E+01  0.4965E+02
  12.770  0.3141E+01  0.4968E+02
  12.780  0.3155E+01  0.4971E+02
  12.790  0.3192E+01  0.4975E+02
  12.800  0.3196E+01  0.4978E+02
  12.810  0.3211E+01  0.4981E+02
  12.820  0.3290E+01  0.4984E+02
  12.830  0.3311E+01  0.4988E+02
  12.840  0.3362E+01  0.4991E+02
  12.850  0.3485E+01  0.4994E+02
  12.860  0.3604E+01  0.4998E+02
  12.870  0.3697E+01  0.5002E+02
  12.880  0.3856E+01  0.5005E+02
  12.890  0.4034E+01  0.5009E+02
  12.900  0.4364E+01  0.5013E+02
  12.910  0.4325E+01  0.5018E+02
  12.920  0.4456E+01  0.5022E+02
  12.930  0.5080E+01  0.5027E+02
  12.940  0.5328E+01  0.5032E+02
  12.950  0.5028E+01  0.5038E+02
  12.960  0.4769E+01  0.5043E+02
  12.970  0.4816E+01  0.5047E+02
  12.980  0.4952E+01  0.5052E+02
  12.990  0.5067E+01  0.5057E+02
  13.000  0.5301E+01  0.5062E+02
  13.010  0.5532E+01  0.5068E+02
  13.020  0.5853E+01  0.5074E+02
  13.030  0.6127E+01  0.5080E+02
  13.040  0.6576E+01  0.5086E+02
  13.050  0.6800E+01  0.5093E+02
  13.060  0.7038E+01  0.5100E+02
  13.070  0.7715E+01  0.5107E+02
  13.080  0.9108E+01  0.5116E+02
  13.090  0.7750E+01  0.5124E+02
  13.100  0.7156E+01  0.5132E+02
  13.110  0.6809E+01  0.5139E+02
  13.120  0.6563E+01  0.5145E+02
  13.130  0.6057E+01  0.5152E+02
  13.140  0.5818E+01  0.5157E+02
  13.150  0.5482E+01  0.5163E+02
  13.160  0.4011E+01  0.5168E+02
  13.170  0.3426E+01  0.5172E+02
  13.180  0.3050E+01  0.5175E+02
  13.190  0.2917E+01  0.5178E+02
  13.200  0.2899E+01  0.5181E+02
  13.210  0.3343E+01  0.5184E+02
  13.220  0.3247E+01  0.5187E+02
  13.230  0.3315E+01  0.5190E+02
  13.240  0.3350E+01  0.5194E+02
  13.250  0.3358E+01  0.5197E+02
  13.260  0.3393E+01  0.5200E+02
  13.270  0.3473E+01  0.5204E+02
  13.280  0.3525E+01  0.5207E+02
  13.290  0.3534E+01  0.5211E+02
  13.300  0.3644E+01  0.5214E+02
  13.310  0.3727E+01  0.5218E+02
  13.320  0.3820E+01  0.5222E+02
  13.330  0.3900E+01  0.5226E+02
  13.340  0.4003E+01  0.5230E+02
  13.350  0.4169E+01  0.5234E+02
  13.360  0.4343E+01  0.5238E+02
  13.370  0.4614E+01  0.5242E+02
  13.380  0.5004E+01  0.5247E+02
  13.390  0.4988E+01  0.5252E+02
  13.400  0.4909E+01  0.5257E+02
  13.410  0.5157E+01  0.5262E+02
  13.420  0.5521E+01  0.5268E+02
  13.430  0.6294E+01  0.5273E+02
  13.440  0.6782E+01  0.5280E+02
  13.450  0.7205E+01  0.5287E+02
  13.460  0.7267E+01  0.5294E+02
  13.470  0.7538E+01  0.5301E+02
  13.480  0.8004E+01  0.5309E+02
  13.490  0.8586E+01  0.5318E+02
  13.500  0.7487E+01  0.5326E+02
  13.510  0.7207E+01  0.5333E+02
  13.520  0.7419E+01  0.5340E+02
  13.530  0.8274E+01  0.5348E+02
  13.540  0.8550E+01  0.5357E+02
  13.550  0.8521E+01  0.5365E+02
  13.560  0.7937E+01  0.5373E+02
  13.570  0.7613E+01  0.5381E+02
  13.580  0.7325E+01  0.5389E+02
  13.590  0.6934E+01  0.5396E+02
  13.600  0.6514E+01  0.5403E+02
  13.610  0.6170E+01  0.5409E+02
  13.620  0.5731E+01  0.5415E+02
  13.630  0.5398E+01  0.5420E+02
  13.640  0.5102E+01  0.5426E+02
  13.650  0.4901E+01  0.5431E+02
  13.660  0.4736E+01  0.5435E+02
  13.670  0.4575E+01  0.5440E+02
  13.680  0.4451E+01  0.5445E+02
  13.690  0.4359E+01  0.5449E+02
  13.700  0.4287E+01  0.5453E+02
  13.710  0.4214E+01  0.5458E+02
  13.720  0.4165E+01  0.5462E+02
  13.730  0.4096E+01  0.5466E+02
  13.740  0.4045E+01  0.5470E+02
  13.750  0.3974E+01  0.5474E+02
  13.760  0.3891E+01  0.5478E+02
  13.770  0.3859E+01  0.5482E+02
  13.780  0.3837E+01  0.5486E+02
  13.790  0.3811E+01  0.5490E+02
  13.800  0.3800E+01  0.5493E+02
  13.810  0.3780E+01  0.5497E+02
  13.820  0.3826E+01  0.5501E+02
  13.830  0.3873E+01  0.5505E+02
  13.840  0.3888E+01  0.5509E+02
  13.850  0.3896E+01  0.5513E+02
  13.860  0.3919E+01  0.5516E+02
  13.870  0.3974E+01  0.5520E+02
  13.880  0.4040E+01  0.5524E+02
  13.890  0.4047E+01  0.5528E+02
  13.900  0.4104E+01  0.5532E+02
  13.910  0.4149E+01  0.5537E+02
  13.920  0.4283E+01  0.5541E+02
  13.930  0.4356E+01  0.5545E+02
  13.940  0.4404E+01  0.5550E+02
  13.950  0.4488E+01  0.5554E+02
  13.960  0.4461E+01  0.5558E+02
  13.970  0.4360E+01  0.5563E+02
  13.980  0.4230E+01  0.5567E+02
  13.990  0.4135E+01  0.5571E+02
  14.000  0.4169E+01  0.5575E+02
  14.010  0.4084E+01  0.5580E+02
  14.020  0.4104E+01  0.5584E+02
  14.030  0.4510E+01  0.5588E+02
  14.040  0.5687E+01  0.5593E+02
  14.050  0.6089E+01  0.5599E+02
  14.060  0.6238E+01  0.5605E+02
  14.070  0.5771E+01  0.5611E+02
  14.080  0.4977E+01  0.5617E+02
  14.090  0.4430E+01  0.5622E+02
  14.100  0.2938E+01  0.5625E+02
  14.110  0.2991E+01  0.5628E+02
  14.120  0.3087E+01  0.5631E+02
  14.130  0.3182E+01  0.5634E+02
  14.140  0.3284E+01  0.5637E+02
  14.150  0.3359E+01  0.5641E+02
  14.160  0.3469E+01  0.5644E+02
  14.170  0.3598E+01  0.5648E+02
  14.180  0.3612E+01  0.5651E+02
  14.190  0.3624E+01  0.5655E+02
  14.200  0.3698E+01  0.5659E+02
  14.210  0.3707E+01  0.5662E+02
  14.220  0.3731E+01  0.5666E+02
  14.230  0.3720E+01  0.5670E+02
  14.240  0.3738E+01  0.5673E+02
  14.250  0.3773E+01  0.5677E+02
  14.260  0.3802E+01  0.5681E+02
  14.270  0.3916E+01  0.5685E+02
  14.280  0.3932E+01  0.5689E+02
  14.290  0.4030E+01  0.5693E+02
  14.300  0.4118E+01  0.5697E+02
  14.310  0.4113E+01  0.5701E+02
  14.320  0.4113E+01  0.5705E+02
  14.330  0.4213E+01  0.5709E+02
  14.340  0.4122E+01  0.5713E+02
  14.350  0.4052E+01  0.5718E+02
  14.360  0.4045E+01  0.5722E+02
  14.370  0.4008E+01  0.5726E+02
  14.380  0.3975E+01  0.5730E+02
  14.390  0.4037E+01  0.5734E+02
  14.400  0.4100E+01  0.5738E+02
  14.410  0.4100E+01  0.5742E+02
  14.420  0.4106E+01  0.5746E+02
  14.430  0.4168E+01  0.5750E+02
  14.440  0.4157E+01  0.5754E+02
  14.450  0.4197E+01  0.5758E+02
  14.460  0.4287E+01  0.5763E+02
  14.470  0.4462E+01  0.5767E+02
  14.480  0.4516E+01  0.5771E+02
  14.490  0.4629E+01  0.5776E+02
  14.500  0.4775E+01  0.5781E+02
  14.510  0.5107E+01  0.5786E+02
  14.520  0.5547E+01  0.5791E+02
  14.530  0.5674E+01  0.5797E+02
  14.540  0.5189E+01  0.5802E+02
  14.550  0.4908E+01  0.5807E+02
  14.560  0.4753E+01  0.5812E+02
  14.570  0.4537E+01  0.5817E+02
  14.580  0.4838E+01  0.5821E+02
  14.590  0.4867E+01  0.5826E+02
  14.600  0.5009E+01  0.5831E+02
  14.610  0.5105E+01  0.5836E+02
  14.620  0.5354E+01  0.5841E+02
  14.630  0.5673E+01  0.5847E+02
  14.640  0.5856E+01  0.5853E+02
  14.650  0.6083E+01  0.5858E+02
  14.660  0.5783E+01  0.5864E+02
  14.670  0.5629E+01  0.5870E+02
  14.680  0.5144E+01  0.5875E+02
  14.690  0.4851E+01  0.5880E+02
  14.700  0.4810E+01  0.5885E+02
  14.710  0.4345E+01  0.5890E+02
  14.720  0.3642E+01  0.5894E+02
  14.730  0.2972E+01  0.5897E+02
  14.740  0.2678E+01  0.5900E+02
  14.750  0.2575E+01  0.5903E+02
  14.760  0.2540E+01  0.5905E+02
  14.770  0.2556E+01  0.5908E+02
  14.780  0.2588E+01  0.5910E+02
  14.790  0.2609E+01  0.5913E+02
  14.800  0.2696E+01  0.5916E+02
  14.810  0.2982E+01  0.5918E+02
  14.820  0.3068E+01  0.5922E+02
  14.830  0.3133E+01  0.5925E+02
  14.840  0.2099E+01  0.5927E+02
  14.850  0.1953E+01  0.5929E+02
  14.860  0.1881E+01  0.5931E+02
  14.870  0.1838E+01  0.5933E+02
  14.880  0.1743E+01  0.5935E+02
  14.890  0.1783E+01  0.5937E+02
  14.900  0.1464E+01  0.5938E+02
  14.910  0.1386E+01  0.5940E+02
  14.920  0.1307E+01  0.5941E+02
  14.930  0.1216E+01  0.5942E+02
  14.940  0.1142E+01  0.5944E+02
  14.950  0.1089E+01  0.5945E+02
  14.960  0.1039E+01  0.5946E+02
  14.970  0.1012E+01  0.5947E+02
  14.980  0.9960E+00  0.5948E+02
  14.990  0.9847E+00  0.5949E+02
  15.000  0.9863E+00  0.5950E+02
