#  E (eV)   dos(E)     Int dos(E) EFermi =    3.190 eV
 -15.000  0.0000E+00  0.8000E+01
 -14.990  0.0000E+00  0.8000E+01
 -14.980  0.0000E+00  0.8000E+01
 -14.970  0.0000E+00  0.8000E+01
 -14.960  0.0000E+00  0.8000E+01
 -14.950  0.0000E+00  0.8000E+01
 -14.940  0.0000E+00  0.8000E+01
 -14.930  0.0000E+00  0.8000E+01
 -14.920  0.0000E+00  0.8000E+01
 -14.910  0.0000E+00  0.8000E+01
 -14.900  0.0000E+00  0.8000E+01
 -14.890  0.0000E+00  0.8000E+01
 -14.880  0.0000E+00  0.8000E+01
 -14.870  0.0000E+00  0.8000E+01
 -14.860  0.0000E+00  0.8000E+01
 -14.850  0.0000E+00  0.8000E+01
 -14.840  0.0000E+00  0.8000E+01
 -14.830  0.0000E+00  0.8000E+01
 -14.820  0.0000E+00  0.8000E+01
 -14.810  0.0000E+00  0.8000E+01
 -14.800  0.0000E+00  0.8000E+01
 -14.790  0.0000E+00  0.8000E+01
 -14.780  0.0000E+00  0.8000E+01
 -14.770  0.0000E+00  0.8000E+01
 -14.760  0.0000E+00  0.8000E+01
 -14.750  0.0000E+00  0.8000E+01
 -14.740  0.0000E+00  0.8000E+01
 -14.730  0.0000E+00  0.8000E+01
 -14.720  0.0000E+00  0.8000E+01
 -14.710  0.0000E+00  0.8000E+01
 -14.700  0.0000E+00  0.8000E+01
 -14.690  0.0000E+00  0.8000E+01
 -14.680  0.0000E+00  0.8000E+01
 -14.670  0.0000E+00  0.8000E+01
 -14.660  0.0000E+00  0.8000E+01
 -14.650  0.0000E+00  0.8000E+01
 -14.640  0.0000E+00  0.8000E+01
 -14.630  0.0000E+00  0.8000E+01
 -14.620  0.0000E+00  0.8000E+01
 -14.610  0.0000E+00  0.8000E+01
 -14.600  0.0000E+00  0.8000E+01
 -14.590  0.0000E+00  0.8000E+01
 -14.580  0.0000E+00  0.8000E+01
 -14.570  0.0000E+00  0.8000E+01
 -14.560  0.0000E+00  0.8000E+01
 -14.550  0.0000E+00  0.8000E+01
 -14.540  0.0000E+00  0.8000E+01
 -14.530  0.0000E+00  0.8000E+01
 -14.520  0.0000E+00  0.8000E+01
 -14.510  0.0000E+00  0.8000E+01
 -14.500  0.0000E+00  0.8000E+01
 -14.490  0.0000E+00  0.8000E+01
 -14.480  0.0000E+00  0.8000E+01
 -14.470  0.0000E+00  0.8000E+01
 -14.460  0.0000E+00  0.8000E+01
 -14.450  0.0000E+00  0.8000E+01
 -14.440  0.0000E+00  0.8000E+01
 -14.430  0.0000E+00  0.8000E+01
 -14.420  0.0000E+00  0.8000E+01
 -14.410  0.0000E+00  0.8000E+01
 -14.400  0.0000E+00  0.8000E+01
 -14.390  0.0000E+00  0.8000E+01
 -14.380  0.0000E+00  0.8000E+01
 -14.370  0.0000E+00  0.8000E+01
 -14.360  0.0000E+00  0.8000E+01
 -14.350  0.0000E+00  0.8000E+01
 -14.340  0.0000E+00  0.8000E+01
 -14.330  0.0000E+00  0.8000E+01
 -14.320  0.0000E+00  0.8000E+01
 -14.310  0.0000E+00  0.8000E+01
 -14.300  0.0000E+00  0.8000E+01
 -14.290  0.0000E+00  0.8000E+01
 -14.280  0.0000E+00  0.8000E+01
 -14.270  0.0000E+00  0.8000E+01
 -14.260  0.0000E+00  0.8000E+01
 -14.250  0.0000E+00  0.8000E+01
 -14.240  0.0000E+00  0.8000E+01
 -14.230  0.0000E+00  0.8000E+01
 -14.220  0.0000E+00  0.8000E+01
 -14.210  0.0000E+00  0.8000E+01
 -14.200  0.0000E+00  0.8000E+01
 -14.190  0.0000E+00  0.8000E+01
 -14.180  0.0000E+00  0.8000E+01
 -14.170  0.0000E+00  0.8000E+01
 -14.160  0.0000E+00  0.8000E+01
 -14.150  0.0000E+00  0.8000E+01
 -14.140  0.0000E+00  0.8000E+01
 -14.130  0.0000E+00  0.8000E+01
 -14.120  0.0000E+00  0.8000E+01
 -14.110  0.0000E+00  0.8000E+01
 -14.100  0.0000E+00  0.8000E+01
 -14.090  0.0000E+00  0.8000E+01
 -14.080  0.0000E+00  0.8000E+01
 -14.070  0.0000E+00  0.8000E+01
 -14.060  0.0000E+00  0.8000E+01
 -14.050  0.0000E+00  0.8000E+01
 -14.040  0.0000E+00  0.8000E+01
 -14.030  0.0000E+00  0.8000E+01
 -14.020  0.0000E+00  0.8000E+01
 -14.010  0.0000E+00  0.8000E+01
 -14.000  0.0000E+00  0.8000E+01
 -13.990  0.0000E+00  0.8000E+01
 -13.980  0.0000E+00  0.8000E+01
 -13.970  0.0000E+00  0.8000E+01
 -13.960  0.0000E+00  0.8000E+01
 -13.950  0.0000E+00  0.8000E+01
 -13.940  0.0000E+00  0.8000E+01
 -13.930  0.0000E+00  0.8000E+01
 -13.920  0.0000E+00  0.8000E+01
 -13.910  0.0000E+00  0.8000E+01
 -13.900  0.0000E+00  0.8000E+01
 -13.890  0.0000E+00  0.8000E+01
 -13.880  0.0000E+00  0.8000E+01
 -13.870  0.0000E+00  0.8000E+01
 -13.860  0.0000E+00  0.8000E+01
 -13.850  0.0000E+00  0.8000E+01
 -13.840  0.0000E+00  0.8000E+01
 -13.830  0.0000E+00  0.8000E+01
 -13.820  0.0000E+00  0.8000E+01
 -13.810  0.0000E+00  0.8000E+01
 -13.800  0.0000E+00  0.8000E+01
 -13.790  0.0000E+00  0.8000E+01
 -13.780  0.0000E+00  0.8000E+01
 -13.770  0.0000E+00  0.8000E+01
 -13.760  0.0000E+00  0.8000E+01
 -13.750  0.0000E+00  0.8000E+01
 -13.740  0.0000E+00  0.8000E+01
 -13.730  0.0000E+00  0.8000E+01
 -13.720  0.0000E+00  0.8000E+01
 -13.710  0.0000E+00  0.8000E+01
 -13.700  0.0000E+00  0.8000E+01
 -13.690  0.0000E+00  0.8000E+01
 -13.680  0.0000E+00  0.8000E+01
 -13.670  0.0000E+00  0.8000E+01
 -13.660  0.0000E+00  0.8000E+01
 -13.650  0.0000E+00  0.8000E+01
 -13.640  0.0000E+00  0.8000E+01
 -13.630  0.0000E+00  0.8000E+01
 -13.620  0.0000E+00  0.8000E+01
 -13.610  0.0000E+00  0.8000E+01
 -13.600  0.0000E+00  0.8000E+01
 -13.590  0.0000E+00  0.8000E+01
 -13.580  0.0000E+00  0.8000E+01
 -13.570  0.0000E+00  0.8000E+01
 -13.560  0.0000E+00  0.8000E+01
 -13.550  0.0000E+00  0.8000E+01
 -13.540  0.0000E+00  0.8000E+01
 -13.530  0.0000E+00  0.8000E+01
 -13.520  0.0000E+00  0.8000E+01
 -13.510  0.0000E+00  0.8000E+01
 -13.500  0.0000E+00  0.8000E+01
 -13.490  0.0000E+00  0.8000E+01
 -13.480  0.0000E+00  0.8000E+01
 -13.470  0.0000E+00  0.8000E+01
 -13.460  0.0000E+00  0.8000E+01
 -13.450  0.0000E+00  0.8000E+01
 -13.440  0.0000E+00  0.8000E+01
 -13.430  0.0000E+00  0.8000E+01
 -13.420  0.0000E+00  0.8000E+01
 -13.410  0.0000E+00  0.8000E+01
 -13.400  0.0000E+00  0.8000E+01
 -13.390  0.0000E+00  0.8000E+01
 -13.380  0.0000E+00  0.8000E+01
 -13.370  0.0000E+00  0.8000E+01
 -13.360  0.0000E+00  0.8000E+01
 -13.350  0.0000E+00  0.8000E+01
 -13.340  0.0000E+00  0.8000E+01
 -13.330  0.0000E+00  0.8000E+01
 -13.320  0.0000E+00  0.8000E+01
 -13.310  0.0000E+00  0.8000E+01
 -13.300  0.0000E+00  0.8000E+01
 -13.290  0.0000E+00  0.8000E+01
 -13.280  0.0000E+00  0.8000E+01
 -13.270  0.0000E+00  0.8000E+01
 -13.260  0.0000E+00  0.8000E+01
 -13.250  0.0000E+00  0.8000E+01
 -13.240  0.0000E+00  0.8000E+01
 -13.230  0.0000E+00  0.8000E+01
 -13.220  0.0000E+00  0.8000E+01
 -13.210  0.0000E+00  0.8000E+01
 -13.200  0.0000E+00  0.8000E+01
 -13.190  0.0000E+00  0.8000E+01
 -13.180  0.0000E+00  0.8000E+01
 -13.170  0.0000E+00  0.8000E+01
 -13.160  0.0000E+00  0.8000E+01
 -13.150  0.0000E+00  0.8000E+01
 -13.140  0.0000E+00  0.8000E+01
 -13.130  0.0000E+00  0.8000E+01
 -13.120  0.0000E+00  0.8000E+01
 -13.110  0.0000E+00  0.8000E+01
 -13.100  0.0000E+00  0.8000E+01
 -13.090  0.0000E+00  0.8000E+01
 -13.080  0.0000E+00  0.8000E+01
 -13.070  0.0000E+00  0.8000E+01
 -13.060  0.0000E+00  0.8000E+01
 -13.050  0.0000E+00  0.8000E+01
 -13.040  0.0000E+00  0.8000E+01
 -13.030  0.0000E+00  0.8000E+01
 -13.020  0.0000E+00  0.8000E+01
 -13.010  0.0000E+00  0.8000E+01
 -13.000  0.0000E+00  0.8000E+01
 -12.990  0.0000E+00  0.8000E+01
 -12.980  0.0000E+00  0.8000E+01
 -12.970  0.0000E+00  0.8000E+01
 -12.960  0.0000E+00  0.8000E+01
 -12.950  0.0000E+00  0.8000E+01
 -12.940  0.0000E+00  0.8000E+01
 -12.930  0.0000E+00  0.8000E+01
 -12.920  0.0000E+00  0.8000E+01
 -12.910  0.0000E+00  0.8000E+01
 -12.900  0.0000E+00  0.8000E+01
 -12.890  0.0000E+00  0.8000E+01
 -12.880  0.0000E+00  0.8000E+01
 -12.870  0.0000E+00  0.8000E+01
 -12.860  0.0000E+00  0.8000E+01
 -12.850  0.0000E+00  0.8000E+01
 -12.840  0.0000E+00  0.8000E+01
 -12.830  0.0000E+00  0.8000E+01
 -12.820  0.0000E+00  0.8000E+01
 -12.810  0.0000E+00  0.8000E+01
 -12.800  0.0000E+00  0.8000E+01
 -12.790  0.0000E+00  0.8000E+01
 -12.780  0.0000E+00  0.8000E+01
 -12.770  0.0000E+00  0.8000E+01
 -12.760  0.0000E+00  0.8000E+01
 -12.750  0.0000E+00  0.8000E+01
 -12.740  0.0000E+00  0.8000E+01
 -12.730  0.0000E+00  0.8000E+01
 -12.720  0.0000E+00  0.8000E+01
 -12.710  0.0000E+00  0.8000E+01
 -12.700  0.0000E+00  0.8000E+01
 -12.690  0.0000E+00  0.8000E+01
 -12.680  0.0000E+00  0.8000E+01
 -12.670  0.0000E+00  0.8000E+01
 -12.660  0.0000E+00  0.8000E+01
 -12.650  0.0000E+00  0.8000E+01
 -12.640  0.0000E+00  0.8000E+01
 -12.630  0.0000E+00  0.8000E+01
 -12.620  0.0000E+00  0.8000E+01
 -12.610  0.0000E+00  0.8000E+01
 -12.600  0.0000E+00  0.8000E+01
 -12.590  0.0000E+00  0.8000E+01
 -12.580  0.0000E+00  0.8000E+01
 -12.570  0.0000E+00  0.8000E+01
 -12.560  0.0000E+00  0.8000E+01
 -12.550  0.0000E+00  0.8000E+01
 -12.540  0.0000E+00  0.8000E+01
 -12.530  0.0000E+00  0.8000E+01
 -12.520  0.0000E+00  0.8000E+01
 -12.510  0.0000E+00  0.8000E+01
 -12.500  0.0000E+00  0.8000E+01
 -12.490  0.0000E+00  0.8000E+01
 -12.480  0.0000E+00  0.8000E+01
 -12.470  0.0000E+00  0.8000E+01
 -12.460  0.0000E+00  0.8000E+01
 -12.450  0.0000E+00  0.8000E+01
 -12.440  0.0000E+00  0.8000E+01
 -12.430  0.0000E+00  0.8000E+01
 -12.420  0.0000E+00  0.8000E+01
 -12.410  0.0000E+00  0.8000E+01
 -12.400  0.0000E+00  0.8000E+01
 -12.390  0.0000E+00  0.8000E+01
 -12.380  0.0000E+00  0.8000E+01
 -12.370  0.0000E+00  0.8000E+01
 -12.360  0.0000E+00  0.8000E+01
 -12.350  0.0000E+00  0.8000E+01
 -12.340  0.0000E+00  0.8000E+01
 -12.330  0.0000E+00  0.8000E+01
 -12.320  0.0000E+00  0.8000E+01
 -12.310  0.0000E+00  0.8000E+01
 -12.300  0.0000E+00  0.8000E+01
 -12.290  0.0000E+00  0.8000E+01
 -12.280  0.0000E+00  0.8000E+01
 -12.270  0.0000E+00  0.8000E+01
 -12.260  0.0000E+00  0.8000E+01
 -12.250  0.0000E+00  0.8000E+01
 -12.240  0.0000E+00  0.8000E+01
 -12.230  0.0000E+00  0.8000E+01
 -12.220  0.0000E+00  0.8000E+01
 -12.210  0.0000E+00  0.8000E+01
 -12.200  0.0000E+00  0.8000E+01
 -12.190  0.0000E+00  0.8000E+01
 -12.180  0.0000E+00  0.8000E+01
 -12.170  0.0000E+00  0.8000E+01
 -12.160  0.0000E+00  0.8000E+01
 -12.150  0.0000E+00  0.8000E+01
 -12.140  0.0000E+00  0.8000E+01
 -12.130  0.0000E+00  0.8000E+01
 -12.120  0.0000E+00  0.8000E+01
 -12.110  0.0000E+00  0.8000E+01
 -12.100  0.0000E+00  0.8000E+01
 -12.090  0.0000E+00  0.8000E+01
 -12.080  0.0000E+00  0.8000E+01
 -12.070  0.0000E+00  0.8000E+01
 -12.060  0.0000E+00  0.8000E+01
 -12.050  0.0000E+00  0.8000E+01
 -12.040  0.0000E+00  0.8000E+01
 -12.030  0.0000E+00  0.8000E+01
 -12.020  0.0000E+00  0.8000E+01
 -12.010  0.0000E+00  0.8000E+01
 -12.000  0.0000E+00  0.8000E+01
 -11.990  0.0000E+00  0.8000E+01
 -11.980  0.0000E+00  0.8000E+01
 -11.970  0.0000E+00  0.8000E+01
 -11.960  0.0000E+00  0.8000E+01
 -11.950  0.0000E+00  0.8000E+01
 -11.940  0.0000E+00  0.8000E+01
 -11.930  0.0000E+00  0.8000E+01
 -11.920  0.0000E+00  0.8000E+01
 -11.910  0.0000E+00  0.8000E+01
 -11.900  0.0000E+00  0.8000E+01
 -11.890  0.0000E+00  0.8000E+01
 -11.880  0.0000E+00  0.8000E+01
 -11.870  0.0000E+00  0.8000E+01
 -11.860  0.0000E+00  0.8000E+01
 -11.850  0.0000E+00  0.8000E+01
 -11.840  0.0000E+00  0.8000E+01
 -11.830  0.0000E+00  0.8000E+01
 -11.820  0.0000E+00  0.8000E+01
 -11.810  0.0000E+00  0.8000E+01
 -11.800  0.0000E+00  0.8000E+01
 -11.790  0.0000E+00  0.8000E+01
 -11.780  0.0000E+00  0.8000E+01
 -11.770  0.0000E+00  0.8000E+01
 -11.760  0.0000E+00  0.8000E+01
 -11.750  0.0000E+00  0.8000E+01
 -11.740  0.0000E+00  0.8000E+01
 -11.730  0.0000E+00  0.8000E+01
 -11.720  0.0000E+00  0.8000E+01
 -11.710  0.0000E+00  0.8000E+01
 -11.700  0.0000E+00  0.8000E+01
 -11.690  0.0000E+00  0.8000E+01
 -11.680  0.0000E+00  0.8000E+01
 -11.670  0.0000E+00  0.8000E+01
 -11.660  0.0000E+00  0.8000E+01
 -11.650  0.0000E+00  0.8000E+01
 -11.640  0.0000E+00  0.8000E+01
 -11.630  0.0000E+00  0.8000E+01
 -11.620  0.0000E+00  0.8000E+01
 -11.610  0.0000E+00  0.8000E+01
 -11.600  0.0000E+00  0.8000E+01
 -11.590  0.0000E+00  0.8000E+01
 -11.580  0.0000E+00  0.8000E+01
 -11.570  0.0000E+00  0.8000E+01
 -11.560  0.0000E+00  0.8000E+01
 -11.550  0.0000E+00  0.8000E+01
 -11.540  0.0000E+00  0.8000E+01
 -11.530  0.0000E+00  0.8000E+01
 -11.520  0.0000E+00  0.8000E+01
 -11.510  0.0000E+00  0.8000E+01
 -11.500  0.0000E+00  0.8000E+01
 -11.490  0.0000E+00  0.8000E+01
 -11.480  0.0000E+00  0.8000E+01
 -11.470  0.0000E+00  0.8000E+01
 -11.460  0.0000E+00  0.8000E+01
 -11.450  0.0000E+00  0.8000E+01
 -11.440  0.0000E+00  0.8000E+01
 -11.430  0.0000E+00  0.8000E+01
 -11.420  0.0000E+00  0.8000E+01
 -11.410  0.0000E+00  0.8000E+01
 -11.400  0.0000E+00  0.8000E+01
 -11.390  0.0000E+00  0.8000E+01
 -11.380  0.0000E+00  0.8000E+01
 -11.370  0.0000E+00  0.8000E+01
 -11.360  0.0000E+00  0.8000E+01
 -11.350  0.0000E+00  0.8000E+01
 -11.340  0.0000E+00  0.8000E+01
 -11.330  0.0000E+00  0.8000E+01
 -11.320  0.0000E+00  0.8000E+01
 -11.310  0.0000E+00  0.8000E+01
 -11.300  0.0000E+00  0.8000E+01
 -11.290  0.0000E+00  0.8000E+01
 -11.280  0.0000E+00  0.8000E+01
 -11.270  0.0000E+00  0.8000E+01
 -11.260  0.0000E+00  0.8000E+01
 -11.250  0.0000E+00  0.8000E+01
 -11.240  0.0000E+00  0.8000E+01
 -11.230  0.0000E+00  0.8000E+01
 -11.220  0.0000E+00  0.8000E+01
 -11.210  0.0000E+00  0.8000E+01
 -11.200  0.0000E+00  0.8000E+01
 -11.190  0.0000E+00  0.8000E+01
 -11.180  0.0000E+00  0.8000E+01
 -11.170  0.0000E+00  0.8000E+01
 -11.160  0.0000E+00  0.8000E+01
 -11.150  0.0000E+00  0.8000E+01
 -11.140  0.0000E+00  0.8000E+01
 -11.130  0.0000E+00  0.8000E+01
 -11.120  0.0000E+00  0.8000E+01
 -11.110  0.0000E+00  0.8000E+01
 -11.100  0.0000E+00  0.8000E+01
 -11.090  0.0000E+00  0.8000E+01
 -11.080  0.0000E+00  0.8000E+01
 -11.070  0.0000E+00  0.8000E+01
 -11.060  0.0000E+00  0.8000E+01
 -11.050  0.0000E+00  0.8000E+01
 -11.040  0.0000E+00  0.8000E+01
 -11.030  0.0000E+00  0.8000E+01
 -11.020  0.0000E+00  0.8000E+01
 -11.010  0.0000E+00  0.8000E+01
 -11.000  0.0000E+00  0.8000E+01
 -10.990  0.0000E+00  0.8000E+01
 -10.980  0.0000E+00  0.8000E+01
 -10.970  0.0000E+00  0.8000E+01
 -10.960  0.0000E+00  0.8000E+01
 -10.950  0.0000E+00  0.8000E+01
 -10.940  0.0000E+00  0.8000E+01
 -10.930  0.0000E+00  0.8000E+01
 -10.920  0.0000E+00  0.8000E+01
 -10.910  0.0000E+00  0.8000E+01
 -10.900  0.0000E+00  0.8000E+01
 -10.890  0.0000E+00  0.8000E+01
 -10.880  0.0000E+00  0.8000E+01
 -10.870  0.0000E+00  0.8000E+01
 -10.860  0.0000E+00  0.8000E+01
 -10.850  0.0000E+00  0.8000E+01
 -10.840  0.0000E+00  0.8000E+01
 -10.830  0.0000E+00  0.8000E+01
 -10.820  0.0000E+00  0.8000E+01
 -10.810  0.0000E+00  0.8000E+01
 -10.800  0.0000E+00  0.8000E+01
 -10.790  0.0000E+00  0.8000E+01
 -10.780  0.0000E+00  0.8000E+01
 -10.770  0.0000E+00  0.8000E+01
 -10.760  0.0000E+00  0.8000E+01
 -10.750  0.0000E+00  0.8000E+01
 -10.740  0.0000E+00  0.8000E+01
 -10.730  0.0000E+00  0.8000E+01
 -10.720  0.0000E+00  0.8000E+01
 -10.710  0.0000E+00  0.8000E+01
 -10.700  0.0000E+00  0.8000E+01
 -10.690  0.0000E+00  0.8000E+01
 -10.680  0.0000E+00  0.8000E+01
 -10.670  0.0000E+00  0.8000E+01
 -10.660  0.0000E+00  0.8000E+01
 -10.650  0.0000E+00  0.8000E+01
 -10.640  0.0000E+00  0.8000E+01
 -10.630  0.0000E+00  0.8000E+01
 -10.620  0.0000E+00  0.8000E+01
 -10.610  0.0000E+00  0.8000E+01
 -10.600  0.0000E+00  0.8000E+01
 -10.590  0.0000E+00  0.8000E+01
 -10.580  0.0000E+00  0.8000E+01
 -10.570  0.0000E+00  0.8000E+01
 -10.560  0.0000E+00  0.8000E+01
 -10.550  0.0000E+00  0.8000E+01
 -10.540  0.0000E+00  0.8000E+01
 -10.530  0.0000E+00  0.8000E+01
 -10.520  0.0000E+00  0.8000E+01
 -10.510  0.0000E+00  0.8000E+01
 -10.500  0.0000E+00  0.8000E+01
 -10.490  0.0000E+00  0.8000E+01
 -10.480  0.0000E+00  0.8000E+01
 -10.470  0.0000E+00  0.8000E+01
 -10.460  0.0000E+00  0.8000E+01
 -10.450  0.0000E+00  0.8000E+01
 -10.440  0.0000E+00  0.8000E+01
 -10.430  0.0000E+00  0.8000E+01
 -10.420  0.0000E+00  0.8000E+01
 -10.410  0.0000E+00  0.8000E+01
 -10.400  0.0000E+00  0.8000E+01
 -10.390  0.0000E+00  0.8000E+01
 -10.380  0.0000E+00  0.8000E+01
 -10.370  0.0000E+00  0.8000E+01
 -10.360  0.0000E+00  0.8000E+01
 -10.350  0.0000E+00  0.8000E+01
 -10.340  0.0000E+00  0.8000E+01
 -10.330  0.0000E+00  0.8000E+01
 -10.320  0.0000E+00  0.8000E+01
 -10.310  0.0000E+00  0.8000E+01
 -10.300  0.0000E+00  0.8000E+01
 -10.290  0.0000E+00  0.8000E+01
 -10.280  0.0000E+00  0.8000E+01
 -10.270  0.0000E+00  0.8000E+01
 -10.260  0.0000E+00  0.8000E+01
 -10.250  0.0000E+00  0.8000E+01
 -10.240  0.0000E+00  0.8000E+01
 -10.230  0.0000E+00  0.8000E+01
 -10.220  0.0000E+00  0.8000E+01
 -10.210  0.0000E+00  0.8000E+01
 -10.200  0.0000E+00  0.8000E+01
 -10.190  0.0000E+00  0.8000E+01
 -10.180  0.0000E+00  0.8000E+01
 -10.170  0.0000E+00  0.8000E+01
 -10.160  0.0000E+00  0.8000E+01
 -10.150  0.0000E+00  0.8000E+01
 -10.140  0.0000E+00  0.8000E+01
 -10.130  0.0000E+00  0.8000E+01
 -10.120  0.0000E+00  0.8000E+01
 -10.110  0.0000E+00  0.8000E+01
 -10.100  0.0000E+00  0.8000E+01
 -10.090  0.0000E+00  0.8000E+01
 -10.080  0.0000E+00  0.8000E+01
 -10.070  0.0000E+00  0.8000E+01
 -10.060  0.0000E+00  0.8000E+01
 -10.050  0.0000E+00  0.8000E+01
 -10.040  0.0000E+00  0.8000E+01
 -10.030  0.0000E+00  0.8000E+01
 -10.020  0.0000E+00  0.8000E+01
 -10.010  0.0000E+00  0.8000E+01
 -10.000  0.0000E+00  0.8000E+01
  -9.990  0.0000E+00  0.8000E+01
  -9.980  0.0000E+00  0.8000E+01
  -9.970  0.0000E+00  0.8000E+01
  -9.960  0.0000E+00  0.8000E+01
  -9.950  0.0000E+00  0.8000E+01
  -9.940  0.0000E+00  0.8000E+01
  -9.930  0.0000E+00  0.8000E+01
  -9.920  0.0000E+00  0.8000E+01
  -9.910  0.0000E+00  0.8000E+01
  -9.900  0.0000E+00  0.8000E+01
  -9.890  0.0000E+00  0.8000E+01
  -9.880  0.0000E+00  0.8000E+01
  -9.870  0.0000E+00  0.8000E+01
  -9.860  0.0000E+00  0.8000E+01
  -9.850  0.0000E+00  0.8000E+01
  -9.840  0.0000E+00  0.8000E+01
  -9.830  0.0000E+00  0.8000E+01
  -9.820  0.0000E+00  0.8000E+01
  -9.810  0.0000E+00  0.8000E+01
  -9.800  0.0000E+00  0.8000E+01
  -9.790  0.0000E+00  0.8000E+01
  -9.780  0.0000E+00  0.8000E+01
  -9.770  0.0000E+00  0.8000E+01
  -9.760  0.0000E+00  0.8000E+01
  -9.750  0.0000E+00  0.8000E+01
  -9.740  0.0000E+00  0.8000E+01
  -9.730  0.0000E+00  0.8000E+01
  -9.720  0.0000E+00  0.8000E+01
  -9.710  0.0000E+00  0.8000E+01
  -9.700  0.0000E+00  0.8000E+01
  -9.690  0.0000E+00  0.8000E+01
  -9.680  0.0000E+00  0.8000E+01
  -9.670  0.0000E+00  0.8000E+01
  -9.660  0.0000E+00  0.8000E+01
  -9.650  0.0000E+00  0.8000E+01
  -9.640  0.0000E+00  0.8000E+01
  -9.630  0.0000E+00  0.8000E+01
  -9.620  0.0000E+00  0.8000E+01
  -9.610  0.0000E+00  0.8000E+01
  -9.600  0.0000E+00  0.8000E+01
  -9.590  0.0000E+00  0.8000E+01
  -9.580  0.0000E+00  0.8000E+01
  -9.570  0.0000E+00  0.8000E+01
  -9.560  0.0000E+00  0.8000E+01
  -9.550  0.0000E+00  0.8000E+01
  -9.540  0.0000E+00  0.8000E+01
  -9.530  0.0000E+00  0.8000E+01
  -9.520  0.0000E+00  0.8000E+01
  -9.510  0.0000E+00  0.8000E+01
  -9.500  0.0000E+00  0.8000E+01
  -9.490  0.0000E+00  0.8000E+01
  -9.480  0.0000E+00  0.8000E+01
  -9.470  0.0000E+00  0.8000E+01
  -9.460  0.0000E+00  0.8000E+01
  -9.450  0.0000E+00  0.8000E+01
  -9.440  0.0000E+00  0.8000E+01
  -9.430  0.0000E+00  0.8000E+01
  -9.420  0.0000E+00  0.8000E+01
  -9.410  0.0000E+00  0.8000E+01
  -9.400  0.0000E+00  0.8000E+01
  -9.390  0.0000E+00  0.8000E+01
  -9.380  0.0000E+00  0.8000E+01
  -9.370  0.0000E+00  0.8000E+01
  -9.360  0.0000E+00  0.8000E+01
  -9.350  0.0000E+00  0.8000E+01
  -9.340  0.0000E+00  0.8000E+01
  -9.330  0.0000E+00  0.8000E+01
  -9.320  0.0000E+00  0.8000E+01
  -9.310  0.0000E+00  0.8000E+01
  -9.300  0.0000E+00  0.8000E+01
  -9.290  0.0000E+00  0.8000E+01
  -9.280  0.0000E+00  0.8000E+01
  -9.270  0.0000E+00  0.8000E+01
  -9.260  0.0000E+00  0.8000E+01
  -9.250  0.0000E+00  0.8000E+01
  -9.240  0.0000E+00  0.8000E+01
  -9.230  0.0000E+00  0.8000E+01
  -9.220  0.0000E+00  0.8000E+01
  -9.210  0.0000E+00  0.8000E+01
  -9.200  0.0000E+00  0.8000E+01
  -9.190  0.0000E+00  0.8000E+01
  -9.180  0.0000E+00  0.8000E+01
  -9.170  0.0000E+00  0.8000E+01
  -9.160  0.0000E+00  0.8000E+01
  -9.150  0.0000E+00  0.8000E+01
  -9.140  0.0000E+00  0.8000E+01
  -9.130  0.0000E+00  0.8000E+01
  -9.120  0.0000E+00  0.8000E+01
  -9.110  0.0000E+00  0.8000E+01
  -9.100  0.0000E+00  0.8000E+01
  -9.090  0.0000E+00  0.8000E+01
  -9.080  0.0000E+00  0.8000E+01
  -9.070  0.0000E+00  0.8000E+01
  -9.060  0.0000E+00  0.8000E+01
  -9.050  0.0000E+00  0.8000E+01
  -9.040  0.0000E+00  0.8000E+01
  -9.030  0.0000E+00  0.8000E+01
  -9.020  0.0000E+00  0.8000E+01
  -9.010  0.0000E+00  0.8000E+01
  -9.000  0.0000E+00  0.8000E+01
  -8.990  0.0000E+00  0.8000E+01
  -8.980  0.0000E+00  0.8000E+01
  -8.970  0.0000E+00  0.8000E+01
  -8.960  0.0000E+00  0.8000E+01
  -8.950  0.0000E+00  0.8000E+01
  -8.940  0.0000E+00  0.8000E+01
  -8.930  0.0000E+00  0.8000E+01
  -8.920  0.0000E+00  0.8000E+01
  -8.910  0.0000E+00  0.8000E+01
  -8.900  0.0000E+00  0.8000E+01
  -8.890  0.0000E+00  0.8000E+01
  -8.880  0.0000E+00  0.8000E+01
  -8.870  0.0000E+00  0.8000E+01
  -8.860  0.0000E+00  0.8000E+01
  -8.850  0.0000E+00  0.8000E+01
  -8.840  0.0000E+00  0.8000E+01
  -8.830  0.0000E+00  0.8000E+01
  -8.820  0.0000E+00  0.8000E+01
  -8.810  0.0000E+00  0.8000E+01
  -8.800  0.0000E+00  0.8000E+01
  -8.790  0.0000E+00  0.8000E+01
  -8.780  0.0000E+00  0.8000E+01
  -8.770  0.0000E+00  0.8000E+01
  -8.760  0.0000E+00  0.8000E+01
  -8.750  0.0000E+00  0.8000E+01
  -8.740  0.0000E+00  0.8000E+01
  -8.730  0.0000E+00  0.8000E+01
  -8.720  0.0000E+00  0.8000E+01
  -8.710  0.0000E+00  0.8000E+01
  -8.700  0.0000E+00  0.8000E+01
  -8.690  0.0000E+00  0.8000E+01
  -8.680  0.0000E+00  0.8000E+01
  -8.670  0.0000E+00  0.8000E+01
  -8.660  0.0000E+00  0.8000E+01
  -8.650  0.0000E+00  0.8000E+01
  -8.640  0.0000E+00  0.8000E+01
  -8.630  0.0000E+00  0.8000E+01
  -8.620  0.0000E+00  0.8000E+01
  -8.610  0.0000E+00  0.8000E+01
  -8.600  0.0000E+00  0.8000E+01
  -8.590  0.0000E+00  0.8000E+01
  -8.580  0.0000E+00  0.8000E+01
  -8.570  0.0000E+00  0.8000E+01
  -8.560  0.0000E+00  0.8000E+01
  -8.550  0.0000E+00  0.8000E+01
  -8.540  0.0000E+00  0.8000E+01
  -8.530  0.0000E+00  0.8000E+01
  -8.520  0.0000E+00  0.8000E+01
  -8.510  0.0000E+00  0.8000E+01
  -8.500  0.0000E+00  0.8000E+01
  -8.490  0.0000E+00  0.8000E+01
  -8.480  0.0000E+00  0.8000E+01
  -8.470  0.0000E+00  0.8000E+01
  -8.460  0.0000E+00  0.8000E+01
  -8.450  0.0000E+00  0.8000E+01
  -8.440  0.0000E+00  0.8000E+01
  -8.430  0.0000E+00  0.8000E+01
  -8.420  0.0000E+00  0.8000E+01
  -8.410  0.0000E+00  0.8000E+01
  -8.400  0.0000E+00  0.8000E+01
  -8.390  0.0000E+00  0.8000E+01
  -8.380  0.0000E+00  0.8000E+01
  -8.370  0.0000E+00  0.8000E+01
  -8.360  0.0000E+00  0.8000E+01
  -8.350  0.0000E+00  0.8000E+01
  -8.340  0.0000E+00  0.8000E+01
  -8.330  0.0000E+00  0.8000E+01
  -8.320  0.0000E+00  0.8000E+01
  -8.310  0.0000E+00  0.8000E+01
  -8.300  0.0000E+00  0.8000E+01
  -8.290  0.0000E+00  0.8000E+01
  -8.280  0.0000E+00  0.8000E+01
  -8.270  0.0000E+00  0.8000E+01
  -8.260  0.0000E+00  0.8000E+01
  -8.250  0.0000E+00  0.8000E+01
  -8.240  0.0000E+00  0.8000E+01
  -8.230  0.0000E+00  0.8000E+01
  -8.220  0.0000E+00  0.8000E+01
  -8.210  0.0000E+00  0.8000E+01
  -8.200  0.0000E+00  0.8000E+01
  -8.190  0.0000E+00  0.8000E+01
  -8.180  0.0000E+00  0.8000E+01
  -8.170  0.0000E+00  0.8000E+01
  -8.160  0.0000E+00  0.8000E+01
  -8.150  0.0000E+00  0.8000E+01
  -8.140  0.0000E+00  0.8000E+01
  -8.130  0.0000E+00  0.8000E+01
  -8.120  0.0000E+00  0.8000E+01
  -8.110  0.0000E+00  0.8000E+01
  -8.100  0.0000E+00  0.8000E+01
  -8.090  0.0000E+00  0.8000E+01
  -8.080  0.0000E+00  0.8000E+01
  -8.070  0.0000E+00  0.8000E+01
  -8.060  0.0000E+00  0.8000E+01
  -8.050  0.0000E+00  0.8000E+01
  -8.040  0.0000E+00  0.8000E+01
  -8.030  0.0000E+00  0.8000E+01
  -8.020  0.0000E+00  0.8000E+01
  -8.010  0.0000E+00  0.8000E+01
  -8.000  0.0000E+00  0.8000E+01
  -7.990  0.0000E+00  0.8000E+01
  -7.980  0.0000E+00  0.8000E+01
  -7.970  0.0000E+00  0.8000E+01
  -7.960  0.0000E+00  0.8000E+01
  -7.950  0.0000E+00  0.8000E+01
  -7.940  0.0000E+00  0.8000E+01
  -7.930  0.0000E+00  0.8000E+01
  -7.920  0.0000E+00  0.8000E+01
  -7.910  0.0000E+00  0.8000E+01
  -7.900  0.0000E+00  0.8000E+01
  -7.890  0.0000E+00  0.8000E+01
  -7.880  0.0000E+00  0.8000E+01
  -7.870  0.0000E+00  0.8000E+01
  -7.860  0.0000E+00  0.8000E+01
  -7.850  0.0000E+00  0.8000E+01
  -7.840  0.0000E+00  0.8000E+01
  -7.830  0.0000E+00  0.8000E+01
  -7.820  0.0000E+00  0.8000E+01
  -7.810  0.0000E+00  0.8000E+01
  -7.800  0.0000E+00  0.8000E+01
  -7.790  0.0000E+00  0.8000E+01
  -7.780  0.0000E+00  0.8000E+01
  -7.770  0.0000E+00  0.8000E+01
  -7.760  0.0000E+00  0.8000E+01
  -7.750  0.0000E+00  0.8000E+01
  -7.740  0.0000E+00  0.8000E+01
  -7.730  0.0000E+00  0.8000E+01
  -7.720  0.0000E+00  0.8000E+01
  -7.710  0.0000E+00  0.8000E+01
  -7.700  0.0000E+00  0.8000E+01
  -7.690  0.0000E+00  0.8000E+01
  -7.680  0.0000E+00  0.8000E+01
  -7.670  0.0000E+00  0.8000E+01
  -7.660  0.0000E+00  0.8000E+01
  -7.650  0.0000E+00  0.8000E+01
  -7.640  0.0000E+00  0.8000E+01
  -7.630  0.0000E+00  0.8000E+01
  -7.620  0.0000E+00  0.8000E+01
  -7.610  0.0000E+00  0.8000E+01
  -7.600  0.0000E+00  0.8000E+01
  -7.590  0.0000E+00  0.8000E+01
  -7.580  0.0000E+00  0.8000E+01
  -7.570  0.0000E+00  0.8000E+01
  -7.560  0.0000E+00  0.8000E+01
  -7.550  0.0000E+00  0.8000E+01
  -7.540  0.0000E+00  0.8000E+01
  -7.530  0.0000E+00  0.8000E+01
  -7.520  0.0000E+00  0.8000E+01
  -7.510  0.0000E+00  0.8000E+01
  -7.500  0.0000E+00  0.8000E+01
  -7.490  0.0000E+00  0.8000E+01
  -7.480  0.0000E+00  0.8000E+01
  -7.470  0.0000E+00  0.8000E+01
  -7.460  0.0000E+00  0.8000E+01
  -7.450  0.0000E+00  0.8000E+01
  -7.440  0.0000E+00  0.8000E+01
  -7.430  0.0000E+00  0.8000E+01
  -7.420  0.0000E+00  0.8000E+01
  -7.410  0.0000E+00  0.8000E+01
  -7.400  0.0000E+00  0.8000E+01
  -7.390  0.0000E+00  0.8000E+01
  -7.380  0.0000E+00  0.8000E+01
  -7.370  0.0000E+00  0.8000E+01
  -7.360  0.0000E+00  0.8000E+01
  -7.350  0.0000E+00  0.8000E+01
  -7.340  0.0000E+00  0.8000E+01
  -7.330  0.0000E+00  0.8000E+01
  -7.320  0.0000E+00  0.8000E+01
  -7.310  0.0000E+00  0.8000E+01
  -7.300  0.0000E+00  0.8000E+01
  -7.290  0.0000E+00  0.8000E+01
  -7.280  0.0000E+00  0.8000E+01
  -7.270  0.0000E+00  0.8000E+01
  -7.260  0.0000E+00  0.8000E+01
  -7.250  0.0000E+00  0.8000E+01
  -7.240  0.0000E+00  0.8000E+01
  -7.230  0.0000E+00  0.8000E+01
  -7.220  0.0000E+00  0.8000E+01
  -7.210  0.0000E+00  0.8000E+01
  -7.200  0.0000E+00  0.8000E+01
  -7.190  0.0000E+00  0.8000E+01
  -7.180  0.0000E+00  0.8000E+01
  -7.170  0.0000E+00  0.8000E+01
  -7.160  0.0000E+00  0.8000E+01
  -7.150  0.0000E+00  0.8000E+01
  -7.140  0.0000E+00  0.8000E+01
  -7.130  0.0000E+00  0.8000E+01
  -7.120  0.0000E+00  0.8000E+01
  -7.110  0.0000E+00  0.8000E+01
  -7.100  0.0000E+00  0.8000E+01
  -7.090  0.0000E+00  0.8000E+01
  -7.080  0.0000E+00  0.8000E+01
  -7.070  0.0000E+00  0.8000E+01
  -7.060  0.0000E+00  0.8000E+01
  -7.050  0.0000E+00  0.8000E+01
  -7.040  0.0000E+00  0.8000E+01
  -7.030  0.0000E+00  0.8000E+01
  -7.020  0.0000E+00  0.8000E+01
  -7.010  0.0000E+00  0.8000E+01
  -7.000  0.0000E+00  0.8000E+01
  -6.990  0.0000E+00  0.8000E+01
  -6.980  0.0000E+00  0.8000E+01
  -6.970  0.0000E+00  0.8000E+01
  -6.960  0.0000E+00  0.8000E+01
  -6.950  0.0000E+00  0.8000E+01
  -6.940  0.0000E+00  0.8000E+01
  -6.930  0.0000E+00  0.8000E+01
  -6.920  0.0000E+00  0.8000E+01
  -6.910  0.0000E+00  0.8000E+01
  -6.900  0.0000E+00  0.8000E+01
  -6.890  0.0000E+00  0.8000E+01
  -6.880  0.0000E+00  0.8000E+01
  -6.870  0.0000E+00  0.8000E+01
  -6.860  0.0000E+00  0.8000E+01
  -6.850  0.0000E+00  0.8000E+01
  -6.840  0.0000E+00  0.8000E+01
  -6.830  0.0000E+00  0.8000E+01
  -6.820  0.0000E+00  0.8000E+01
  -6.810  0.0000E+00  0.8000E+01
  -6.800  0.0000E+00  0.8000E+01
  -6.790  0.0000E+00  0.8000E+01
  -6.780  0.0000E+00  0.8000E+01
  -6.770  0.0000E+00  0.8000E+01
  -6.760  0.0000E+00  0.8000E+01
  -6.750  0.0000E+00  0.8000E+01
  -6.740  0.0000E+00  0.8000E+01
  -6.730  0.0000E+00  0.8000E+01
  -6.720  0.0000E+00  0.8000E+01
  -6.710  0.0000E+00  0.8000E+01
  -6.700  0.0000E+00  0.8000E+01
  -6.690  0.0000E+00  0.8000E+01
  -6.680  0.0000E+00  0.8000E+01
  -6.670  0.0000E+00  0.8000E+01
  -6.660  0.0000E+00  0.8000E+01
  -6.650  0.0000E+00  0.8000E+01
  -6.640  0.0000E+00  0.8000E+01
  -6.630  0.0000E+00  0.8000E+01
  -6.620  0.0000E+00  0.8000E+01
  -6.610  0.0000E+00  0.8000E+01
  -6.600  0.0000E+00  0.8000E+01
  -6.590  0.0000E+00  0.8000E+01
  -6.580  0.0000E+00  0.8000E+01
  -6.570  0.0000E+00  0.8000E+01
  -6.560  0.0000E+00  0.8000E+01
  -6.550  0.0000E+00  0.8000E+01
  -6.540  0.0000E+00  0.8000E+01
  -6.530  0.0000E+00  0.8000E+01
  -6.520  0.0000E+00  0.8000E+01
  -6.510  0.0000E+00  0.8000E+01
  -6.500  0.0000E+00  0.8000E+01
  -6.490  0.0000E+00  0.8000E+01
  -6.480  0.0000E+00  0.8000E+01
  -6.470  0.0000E+00  0.8000E+01
  -6.460  0.0000E+00  0.8000E+01
  -6.450  0.0000E+00  0.8000E+01
  -6.440  0.0000E+00  0.8000E+01
  -6.430  0.0000E+00  0.8000E+01
  -6.420  0.0000E+00  0.8000E+01
  -6.410  0.0000E+00  0.8000E+01
  -6.400  0.0000E+00  0.8000E+01
  -6.390  0.0000E+00  0.8000E+01
  -6.380  0.0000E+00  0.8000E+01
  -6.370  0.0000E+00  0.8000E+01
  -6.360  0.0000E+00  0.8000E+01
  -6.350  0.0000E+00  0.8000E+01
  -6.340  0.0000E+00  0.8000E+01
  -6.330  0.0000E+00  0.8000E+01
  -6.320  0.0000E+00  0.8000E+01
  -6.310  0.0000E+00  0.8000E+01
  -6.300  0.0000E+00  0.8000E+01
  -6.290  0.0000E+00  0.8000E+01
  -6.280  0.0000E+00  0.8000E+01
  -6.270  0.0000E+00  0.8000E+01
  -6.260  0.0000E+00  0.8000E+01
  -6.250  0.0000E+00  0.8000E+01
  -6.240  0.0000E+00  0.8000E+01
  -6.230  0.0000E+00  0.8000E+01
  -6.220  0.0000E+00  0.8000E+01
  -6.210  0.0000E+00  0.8000E+01
  -6.200  0.0000E+00  0.8000E+01
  -6.190  0.0000E+00  0.8000E+01
  -6.180  0.0000E+00  0.8000E+01
  -6.170  0.0000E+00  0.8000E+01
  -6.160  0.0000E+00  0.8000E+01
  -6.150  0.0000E+00  0.8000E+01
  -6.140  0.0000E+00  0.8000E+01
  -6.130  0.0000E+00  0.8000E+01
  -6.120  0.0000E+00  0.8000E+01
  -6.110  0.0000E+00  0.8000E+01
  -6.100  0.0000E+00  0.8000E+01
  -6.090  0.0000E+00  0.8000E+01
  -6.080  0.0000E+00  0.8000E+01
  -6.070  0.0000E+00  0.8000E+01
  -6.060  0.0000E+00  0.8000E+01
  -6.050  0.0000E+00  0.8000E+01
  -6.040  0.0000E+00  0.8000E+01
  -6.030  0.0000E+00  0.8000E+01
  -6.020  0.0000E+00  0.8000E+01
  -6.010  0.0000E+00  0.8000E+01
  -6.000  0.0000E+00  0.8000E+01
  -5.990  0.0000E+00  0.8000E+01
  -5.980  0.0000E+00  0.8000E+01
  -5.970  0.0000E+00  0.8000E+01
  -5.960  0.0000E+00  0.8000E+01
  -5.950  0.0000E+00  0.8000E+01
  -5.940  0.0000E+00  0.8000E+01
  -5.930  0.0000E+00  0.8000E+01
  -5.920  0.0000E+00  0.8000E+01
  -5.910  0.0000E+00  0.8000E+01
  -5.900  0.0000E+00  0.8000E+01
  -5.890  0.0000E+00  0.8000E+01
  -5.880  0.0000E+00  0.8000E+01
  -5.870  0.0000E+00  0.8000E+01
  -5.860  0.0000E+00  0.8000E+01
  -5.850  0.0000E+00  0.8000E+01
  -5.840  0.0000E+00  0.8000E+01
  -5.830  0.0000E+00  0.8000E+01
  -5.820  0.0000E+00  0.8000E+01
  -5.810  0.0000E+00  0.8000E+01
  -5.800  0.0000E+00  0.8000E+01
  -5.790  0.0000E+00  0.8000E+01
  -5.780  0.0000E+00  0.8000E+01
  -5.770  0.0000E+00  0.8000E+01
  -5.760  0.0000E+00  0.8000E+01
  -5.750  0.0000E+00  0.8000E+01
  -5.740  0.0000E+00  0.8000E+01
  -5.730  0.0000E+00  0.8000E+01
  -5.720  0.0000E+00  0.8000E+01
  -5.710  0.0000E+00  0.8000E+01
  -5.700  0.0000E+00  0.8000E+01
  -5.690  0.0000E+00  0.8000E+01
  -5.680  0.0000E+00  0.8000E+01
  -5.670  0.0000E+00  0.8000E+01
  -5.660  0.0000E+00  0.8000E+01
  -5.650  0.0000E+00  0.8000E+01
  -5.640  0.0000E+00  0.8000E+01
  -5.630  0.0000E+00  0.8000E+01
  -5.620  0.0000E+00  0.8000E+01
  -5.610  0.0000E+00  0.8000E+01
  -5.600  0.0000E+00  0.8000E+01
  -5.590  0.0000E+00  0.8000E+01
  -5.580  0.0000E+00  0.8000E+01
  -5.570  0.0000E+00  0.8000E+01
  -5.560  0.0000E+00  0.8000E+01
  -5.550  0.0000E+00  0.8000E+01
  -5.540  0.0000E+00  0.8000E+01
  -5.530  0.0000E+00  0.8000E+01
  -5.520  0.0000E+00  0.8000E+01
  -5.510  0.0000E+00  0.8000E+01
  -5.500  0.0000E+00  0.8000E+01
  -5.490  0.0000E+00  0.8000E+01
  -5.480  0.0000E+00  0.8000E+01
  -5.470  0.0000E+00  0.8000E+01
  -5.460  0.0000E+00  0.8000E+01
  -5.450  0.0000E+00  0.8000E+01
  -5.440  0.0000E+00  0.8000E+01
  -5.430  0.0000E+00  0.8000E+01
  -5.420  0.0000E+00  0.8000E+01
  -5.410  0.0000E+00  0.8000E+01
  -5.400  0.0000E+00  0.8000E+01
  -5.390  0.0000E+00  0.8000E+01
  -5.380  0.0000E+00  0.8000E+01
  -5.370  0.0000E+00  0.8000E+01
  -5.360  0.0000E+00  0.8000E+01
  -5.350  0.0000E+00  0.8000E+01
  -5.340  0.0000E+00  0.8000E+01
  -5.330  0.0000E+00  0.8000E+01
  -5.320  0.0000E+00  0.8000E+01
  -5.310  0.0000E+00  0.8000E+01
  -5.300  0.0000E+00  0.8000E+01
  -5.290  0.0000E+00  0.8000E+01
  -5.280  0.0000E+00  0.8000E+01
  -5.270  0.0000E+00  0.8000E+01
  -5.260  0.0000E+00  0.8000E+01
  -5.250  0.0000E+00  0.8000E+01
  -5.240  0.0000E+00  0.8000E+01
  -5.230  0.0000E+00  0.8000E+01
  -5.220  0.0000E+00  0.8000E+01
  -5.210  0.0000E+00  0.8000E+01
  -5.200  0.0000E+00  0.8000E+01
  -5.190  0.0000E+00  0.8000E+01
  -5.180  0.0000E+00  0.8000E+01
  -5.170  0.0000E+00  0.8000E+01
  -5.160  0.0000E+00  0.8000E+01
  -5.150  0.0000E+00  0.8000E+01
  -5.140  0.0000E+00  0.8000E+01
  -5.130  0.0000E+00  0.8000E+01
  -5.120  0.0000E+00  0.8000E+01
  -5.110  0.0000E+00  0.8000E+01
  -5.100  0.0000E+00  0.8000E+01
  -5.090  0.0000E+00  0.8000E+01
  -5.080  0.0000E+00  0.8000E+01
  -5.070  0.0000E+00  0.8000E+01
  -5.060  0.0000E+00  0.8000E+01
  -5.050  0.0000E+00  0.8000E+01
  -5.040  0.0000E+00  0.8000E+01
  -5.030  0.0000E+00  0.8000E+01
  -5.020  0.0000E+00  0.8000E+01
  -5.010  0.0000E+00  0.8000E+01
  -5.000  0.0000E+00  0.8000E+01
  -4.990  0.0000E+00  0.8000E+01
  -4.980  0.0000E+00  0.8000E+01
  -4.970  0.0000E+00  0.8000E+01
  -4.960  0.0000E+00  0.8000E+01
  -4.950  0.0000E+00  0.8000E+01
  -4.940  0.0000E+00  0.8000E+01
  -4.930  0.0000E+00  0.8000E+01
  -4.920  0.0000E+00  0.8000E+01
  -4.910  0.0000E+00  0.8000E+01
  -4.900  0.0000E+00  0.8000E+01
  -4.890  0.0000E+00  0.8000E+01
  -4.880  0.0000E+00  0.8000E+01
  -4.870  0.0000E+00  0.8000E+01
  -4.860  0.0000E+00  0.8000E+01
  -4.850  0.0000E+00  0.8000E+01
  -4.840  0.0000E+00  0.8000E+01
  -4.830  0.0000E+00  0.8000E+01
  -4.820  0.0000E+00  0.8000E+01
  -4.810  0.0000E+00  0.8000E+01
  -4.800  0.0000E+00  0.8000E+01
  -4.790  0.0000E+00  0.8000E+01
  -4.780  0.0000E+00  0.8000E+01
  -4.770  0.0000E+00  0.8000E+01
  -4.760  0.0000E+00  0.8000E+01
  -4.750  0.0000E+00  0.8000E+01
  -4.740  0.0000E+00  0.8000E+01
  -4.730  0.0000E+00  0.8000E+01
  -4.720  0.0000E+00  0.8000E+01
  -4.710  0.0000E+00  0.8000E+01
  -4.700  0.0000E+00  0.8000E+01
  -4.690  0.0000E+00  0.8000E+01
  -4.680  0.0000E+00  0.8000E+01
  -4.670  0.0000E+00  0.8000E+01
  -4.660  0.0000E+00  0.8000E+01
  -4.650  0.0000E+00  0.8000E+01
  -4.640  0.0000E+00  0.8000E+01
  -4.630  0.0000E+00  0.8000E+01
  -4.620  0.0000E+00  0.8000E+01
  -4.610  0.0000E+00  0.8000E+01
  -4.600  0.0000E+00  0.8000E+01
  -4.590  0.0000E+00  0.8000E+01
  -4.580  0.0000E+00  0.8000E+01
  -4.570  0.0000E+00  0.8000E+01
  -4.560  0.0000E+00  0.8000E+01
  -4.550  0.0000E+00  0.8000E+01
  -4.540  0.0000E+00  0.8000E+01
  -4.530  0.0000E+00  0.8000E+01
  -4.520  0.0000E+00  0.8000E+01
  -4.510  0.0000E+00  0.8000E+01
  -4.500  0.0000E+00  0.8000E+01
  -4.490  0.0000E+00  0.8000E+01
  -4.480  0.0000E+00  0.8000E+01
  -4.470  0.0000E+00  0.8000E+01
  -4.460  0.0000E+00  0.8000E+01
  -4.450  0.0000E+00  0.8000E+01
  -4.440  0.0000E+00  0.8000E+01
  -4.430  0.0000E+00  0.8000E+01
  -4.420  0.0000E+00  0.8000E+01
  -4.410  0.0000E+00  0.8000E+01
  -4.400  0.0000E+00  0.8000E+01
  -4.390  0.0000E+00  0.8000E+01
  -4.380  0.0000E+00  0.8000E+01
  -4.370  0.0000E+00  0.8000E+01
  -4.360  0.0000E+00  0.8000E+01
  -4.350  0.0000E+00  0.8000E+01
  -4.340  0.0000E+00  0.8000E+01
  -4.330  0.0000E+00  0.8000E+01
  -4.320  0.0000E+00  0.8000E+01
  -4.310  0.0000E+00  0.8000E+01
  -4.300  0.0000E+00  0.8000E+01
  -4.290  0.0000E+00  0.8000E+01
  -4.280  0.0000E+00  0.8000E+01
  -4.270  0.0000E+00  0.8000E+01
  -4.260  0.0000E+00  0.8000E+01
  -4.250  0.0000E+00  0.8000E+01
  -4.240  0.0000E+00  0.8000E+01
  -4.230  0.0000E+00  0.8000E+01
  -4.220  0.0000E+00  0.8000E+01
  -4.210  0.0000E+00  0.8000E+01
  -4.200  0.0000E+00  0.8000E+01
  -4.190  0.0000E+00  0.8000E+01
  -4.180  0.0000E+00  0.8000E+01
  -4.170  0.0000E+00  0.8000E+01
  -4.160  0.0000E+00  0.8000E+01
  -4.150  0.0000E+00  0.8000E+01
  -4.140  0.0000E+00  0.8000E+01
  -4.130  0.0000E+00  0.8000E+01
  -4.120  0.0000E+00  0.8000E+01
  -4.110  0.0000E+00  0.8000E+01
  -4.100  0.0000E+00  0.8000E+01
  -4.090  0.0000E+00  0.8000E+01
  -4.080  0.0000E+00  0.8000E+01
  -4.070  0.0000E+00  0.8000E+01
  -4.060  0.0000E+00  0.8000E+01
  -4.050  0.0000E+00  0.8000E+01
  -4.040  0.0000E+00  0.8000E+01
  -4.030  0.0000E+00  0.8000E+01
  -4.020  0.7592E+00  0.8002E+01
  -4.010  0.1479E+01  0.8015E+01
  -4.000  0.2885E+01  0.8036E+01
  -3.990  0.3095E+01  0.8066E+01
  -3.980  0.3092E+01  0.8097E+01
  -3.970  0.3108E+01  0.8127E+01
  -3.960  0.3115E+01  0.8158E+01
  -3.950  0.3110E+01  0.8190E+01
  -3.940  0.3179E+01  0.8221E+01
  -3.930  0.3150E+01  0.8253E+01
  -3.920  0.3207E+01  0.8285E+01
  -3.910  0.3210E+01  0.8317E+01
  -3.900  0.3280E+01  0.8349E+01
  -3.890  0.3218E+01  0.8382E+01
  -3.880  0.3299E+01  0.8414E+01
  -3.870  0.3329E+01  0.8447E+01
  -3.860  0.3379E+01  0.8481E+01
  -3.850  0.3338E+01  0.8515E+01
  -3.840  0.3379E+01  0.8548E+01
  -3.830  0.3464E+01  0.8582E+01
  -3.820  0.3484E+01  0.8617E+01
  -3.810  0.3521E+01  0.8652E+01
  -3.800  0.3507E+01  0.8687E+01
  -3.790  0.3561E+01  0.8723E+01
  -3.780  0.3638E+01  0.8759E+01
  -3.770  0.3684E+01  0.8795E+01
  -3.760  0.3716E+01  0.8832E+01
  -3.750  0.3741E+01  0.8870E+01
  -3.740  0.3781E+01  0.8907E+01
  -3.730  0.3864E+01  0.8945E+01
  -3.720  0.3949E+01  0.8984E+01
  -3.710  0.4004E+01  0.9024E+01
  -3.700  0.4047E+01  0.9064E+01
  -3.690  0.4107E+01  0.9105E+01
  -3.680  0.4210E+01  0.9147E+01
  -3.670  0.4339E+01  0.9189E+01
  -3.660  0.4428E+01  0.9233E+01
  -3.650  0.4546E+01  0.9278E+01
  -3.640  0.4794E+01  0.9324E+01
  -3.630  0.6359E+01  0.9381E+01
  -3.620  0.6680E+01  0.9445E+01
  -3.610  0.8262E+01  0.9520E+01
  -3.600  0.8778E+01  0.9605E+01
  -3.590  0.9159E+01  0.9695E+01
  -3.580  0.1027E+02  0.9791E+01
  -3.570  0.1063E+02  0.9899E+01
  -3.560  0.1076E+02  0.1001E+02
  -3.550  0.9398E+01  0.1010E+02
  -3.540  0.8619E+01  0.1019E+02
  -3.530  0.8196E+01  0.1028E+02
  -3.520  0.7900E+01  0.1036E+02
  -3.510  0.7659E+01  0.1044E+02
  -3.500  0.7401E+01  0.1051E+02
  -3.490  0.7278E+01  0.1059E+02
  -3.480  0.7137E+01  0.1066E+02
  -3.470  0.6994E+01  0.1073E+02
  -3.460  0.6884E+01  0.1080E+02
  -3.450  0.6756E+01  0.1087E+02
  -3.440  0.6653E+01  0.1093E+02
  -3.430  0.6621E+01  0.1100E+02
  -3.420  0.6565E+01  0.1106E+02
  -3.410  0.6502E+01  0.1113E+02
  -3.400  0.6394E+01  0.1119E+02
  -3.390  0.6333E+01  0.1126E+02
  -3.380  0.6359E+01  0.1132E+02
  -3.370  0.6377E+01  0.1139E+02
  -3.360  0.6244E+01  0.1145E+02
  -3.350  0.5967E+01  0.1151E+02
  -3.340  0.5803E+01  0.1157E+02
  -3.330  0.5747E+01  0.1163E+02
  -3.320  0.5800E+01  0.1168E+02
  -3.310  0.5839E+01  0.1174E+02
  -3.300  0.5883E+01  0.1180E+02
  -3.290  0.5923E+01  0.1186E+02
  -3.280  0.5994E+01  0.1192E+02
  -3.270  0.6115E+01  0.1198E+02
  -3.260  0.6194E+01  0.1204E+02
  -3.250  0.6362E+01  0.1210E+02
  -3.240  0.6489E+01  0.1217E+02
  -3.230  0.6749E+01  0.1223E+02
  -3.220  0.6989E+01  0.1230E+02
  -3.210  0.7468E+01  0.1238E+02
  -3.200  0.8783E+01  0.1246E+02
  -3.190  0.8172E+01  0.1254E+02
  -3.180  0.8611E+01  0.1263E+02
  -3.170  0.7340E+01  0.1271E+02
  -3.160  0.6699E+01  0.1278E+02
  -3.150  0.6166E+01  0.1284E+02
  -3.140  0.5954E+01  0.1290E+02
  -3.130  0.5611E+01  0.1296E+02
  -3.120  0.5441E+01  0.1301E+02
  -3.110  0.5222E+01  0.1307E+02
  -3.100  0.5044E+01  0.1312E+02
  -3.090  0.4909E+01  0.1317E+02
  -3.080  0.4766E+01  0.1322E+02
  -3.070  0.4654E+01  0.1326E+02
  -3.060  0.4507E+01  0.1331E+02
  -3.050  0.4372E+01  0.1335E+02
  -3.040  0.4375E+01  0.1340E+02
  -3.030  0.4202E+01  0.1344E+02
  -3.020  0.4171E+01  0.1348E+02
  -3.010  0.3944E+01  0.1352E+02
  -3.000  0.3733E+01  0.1356E+02
  -2.990  0.3532E+01  0.1360E+02
  -2.980  0.3446E+01  0.1363E+02
  -2.970  0.3449E+01  0.1367E+02
  -2.960  0.3443E+01  0.1370E+02
  -2.950  0.3428E+01  0.1374E+02
  -2.940  0.3418E+01  0.1377E+02
  -2.930  0.3417E+01  0.1380E+02
  -2.920  0.3446E+01  0.1384E+02
  -2.910  0.3500E+01  0.1387E+02
  -2.900  0.3551E+01  0.1391E+02
  -2.890  0.4051E+01  0.1395E+02
  -2.880  0.4761E+01  0.1399E+02
  -2.870  0.5192E+01  0.1404E+02
  -2.860  0.5584E+01  0.1409E+02
  -2.850  0.6009E+01  0.1415E+02
  -2.840  0.7394E+01  0.1422E+02
  -2.830  0.8933E+01  0.1430E+02
  -2.820  0.1271E+02  0.1440E+02
  -2.810  0.1041E+02  0.1453E+02
  -2.800  0.6799E+01  0.1460E+02
  -2.790  0.1153E+02  0.1468E+02
  -2.780  0.2613E+01  0.1475E+02
  -2.770  0.1864E+01  0.1477E+02
  -2.760  0.1862E+01  0.1479E+02
  -2.750  0.1855E+01  0.1481E+02
  -2.740  0.1814E+01  0.1483E+02
  -2.730  0.1799E+01  0.1485E+02
  -2.720  0.1812E+01  0.1487E+02
  -2.710  0.1824E+01  0.1488E+02
  -2.700  0.1837E+01  0.1490E+02
  -2.690  0.1850E+01  0.1492E+02
  -2.680  0.1840E+01  0.1494E+02
  -2.670  0.1823E+01  0.1496E+02
  -2.660  0.1834E+01  0.1498E+02
  -2.650  0.1983E+01  0.1499E+02
  -2.640  0.2154E+01  0.1502E+02
  -2.630  0.2183E+01  0.1504E+02
  -2.620  0.2251E+01  0.1506E+02
  -2.610  0.2342E+01  0.1508E+02
  -2.600  0.2332E+01  0.1511E+02
  -2.590  0.2287E+01  0.1513E+02
  -2.580  0.2297E+01  0.1515E+02
  -2.570  0.2315E+01  0.1517E+02
  -2.560  0.2354E+01  0.1520E+02
  -2.550  0.2397E+01  0.1522E+02
  -2.540  0.2401E+01  0.1525E+02
  -2.530  0.2404E+01  0.1527E+02
  -2.520  0.2393E+01  0.1529E+02
  -2.510  0.2418E+01  0.1532E+02
  -2.500  0.2462E+01  0.1534E+02
  -2.490  0.2496E+01  0.1537E+02
  -2.480  0.2524E+01  0.1539E+02
  -2.470  0.2530E+01  0.1542E+02
  -2.460  0.2539E+01  0.1544E+02
  -2.450  0.2544E+01  0.1547E+02
  -2.440  0.2559E+01  0.1549E+02
  -2.430  0.2570E+01  0.1552E+02
  -2.420  0.2591E+01  0.1555E+02
  -2.410  0.2625E+01  0.1557E+02
  -2.400  0.2659E+01  0.1560E+02
  -2.390  0.2693E+01  0.1562E+02
  -2.380  0.2716E+01  0.1565E+02
  -2.370  0.2713E+01  0.1568E+02
  -2.360  0.2721E+01  0.1571E+02
  -2.350  0.2738E+01  0.1573E+02
  -2.340  0.2755E+01  0.1576E+02
  -2.330  0.2779E+01  0.1579E+02
  -2.320  0.2810E+01  0.1582E+02
  -2.310  0.2845E+01  0.1584E+02
  -2.300  0.2870E+01  0.1587E+02
  -2.290  0.2880E+01  0.1590E+02
  -2.280  0.2893E+01  0.1593E+02
  -2.270  0.2916E+01  0.1596E+02
  -2.260  0.2941E+01  0.1599E+02
  -2.250  0.2970E+01  0.1602E+02
  -2.240  0.3000E+01  0.1605E+02
  -2.230  0.3022E+01  0.1608E+02
  -2.220  0.3046E+01  0.1611E+02
  -2.210  0.3063E+01  0.1614E+02
  -2.200  0.3081E+01  0.1617E+02
  -2.190  0.3113E+01  0.1620E+02
  -2.180  0.3134E+01  0.1623E+02
  -2.170  0.3153E+01  0.1626E+02
  -2.160  0.3177E+01  0.1630E+02
  -2.150  0.3218E+01  0.1633E+02
  -2.140  0.3267E+01  0.1636E+02
  -2.130  0.3299E+01  0.1639E+02
  -2.120  0.3316E+01  0.1643E+02
  -2.110  0.3315E+01  0.1646E+02
  -2.100  0.3331E+01  0.1649E+02
  -2.090  0.3374E+01  0.1653E+02
  -2.080  0.3413E+01  0.1656E+02
  -2.070  0.3445E+01  0.1659E+02
  -2.060  0.3476E+01  0.1663E+02
  -2.050  0.3505E+01  0.1666E+02
  -2.040  0.3540E+01  0.1670E+02
  -2.030  0.3587E+01  0.1673E+02
  -2.020  0.3621E+01  0.1677E+02
  -2.010  0.3638E+01  0.1681E+02
  -2.000  0.3655E+01  0.1684E+02
  -1.990  0.3683E+01  0.1688E+02
  -1.980  0.3737E+01  0.1692E+02
  -1.970  0.3793E+01  0.1695E+02
  -1.960  0.3833E+01  0.1699E+02
  -1.950  0.3857E+01  0.1703E+02
  -1.940  0.3884E+01  0.1707E+02
  -1.930  0.3921E+01  0.1711E+02
  -1.920  0.3962E+01  0.1715E+02
  -1.910  0.4008E+01  0.1719E+02
  -1.900  0.4052E+01  0.1723E+02
  -1.890  0.4095E+01  0.1727E+02
  -1.880  0.4148E+01  0.1731E+02
  -1.870  0.4196E+01  0.1735E+02
  -1.860  0.4248E+01  0.1739E+02
  -1.850  0.4294E+01  0.1744E+02
  -1.840  0.4329E+01  0.1748E+02
  -1.830  0.4369E+01  0.1752E+02
  -1.820  0.4423E+01  0.1757E+02
  -1.810  0.4480E+01  0.1761E+02
  -1.800  0.4548E+01  0.1766E+02
  -1.790  0.4596E+01  0.1770E+02
  -1.780  0.4649E+01  0.1775E+02
  -1.770  0.4718E+01  0.1780E+02
  -1.760  0.4788E+01  0.1784E+02
  -1.750  0.4857E+01  0.1789E+02
  -1.740  0.4915E+01  0.1794E+02
  -1.730  0.4982E+01  0.1799E+02
  -1.720  0.5060E+01  0.1804E+02
  -1.710  0.5123E+01  0.1809E+02
  -1.700  0.5197E+01  0.1814E+02
  -1.690  0.5683E+01  0.1820E+02
  -1.680  0.6644E+01  0.1826E+02
  -1.670  0.7812E+01  0.1833E+02
  -1.660  0.9517E+01  0.1842E+02
  -1.650  0.9800E+01  0.1852E+02
  -1.640  0.9919E+01  0.1862E+02
  -1.630  0.9039E+01  0.1871E+02
  -1.620  0.8595E+01  0.1880E+02
  -1.610  0.8456E+01  0.1888E+02
  -1.600  0.9902E+01  0.1897E+02
  -1.590  0.1085E+02  0.1908E+02
  -1.580  0.1229E+02  0.1919E+02
  -1.570  0.1282E+02  0.1932E+02
  -1.560  0.1260E+02  0.1945E+02
  -1.550  0.1235E+02  0.1957E+02
  -1.540  0.1195E+02  0.1969E+02
  -1.530  0.1190E+02  0.1981E+02
  -1.520  0.1208E+02  0.1993E+02
  -1.510  0.1249E+02  0.2005E+02
  -1.500  0.1238E+02  0.2018E+02
  -1.490  0.1233E+02  0.2030E+02
  -1.480  0.1238E+02  0.2042E+02
  -1.470  0.1285E+02  0.2055E+02
  -1.460  0.1344E+02  0.2068E+02
  -1.450  0.1451E+02  0.2082E+02
  -1.440  0.1338E+02  0.2097E+02
  -1.430  0.1211E+02  0.2109E+02
  -1.420  0.1171E+02  0.2121E+02
  -1.410  0.1216E+02  0.2133E+02
  -1.400  0.1191E+02  0.2145E+02
  -1.390  0.1277E+02  0.2157E+02
  -1.380  0.1351E+02  0.2170E+02
  -1.370  0.1346E+02  0.2184E+02
  -1.360  0.1149E+02  0.2197E+02
  -1.350  0.1208E+02  0.2208E+02
  -1.340  0.1100E+02  0.2220E+02
  -1.330  0.1053E+02  0.2230E+02
  -1.320  0.1054E+02  0.2241E+02
  -1.310  0.1061E+02  0.2251E+02
  -1.300  0.1147E+02  0.2262E+02
  -1.290  0.1141E+02  0.2274E+02
  -1.280  0.1123E+02  0.2285E+02
  -1.270  0.1066E+02  0.2296E+02
  -1.260  0.9726E+01  0.2306E+02
  -1.250  0.1004E+02  0.2316E+02
  -1.240  0.1074E+02  0.2326E+02
  -1.230  0.1032E+02  0.2337E+02
  -1.220  0.1014E+02  0.2347E+02
  -1.210  0.9951E+01  0.2357E+02
  -1.200  0.9589E+01  0.2367E+02
  -1.190  0.9429E+01  0.2376E+02
  -1.180  0.9492E+01  0.2386E+02
  -1.170  0.9269E+01  0.2395E+02
  -1.160  0.9119E+01  0.2405E+02
  -1.150  0.9213E+01  0.2414E+02
  -1.140  0.9151E+01  0.2423E+02
  -1.130  0.8961E+01  0.2432E+02
  -1.120  0.9004E+01  0.2441E+02
  -1.110  0.8954E+01  0.2450E+02
  -1.100  0.8813E+01  0.2459E+02
  -1.090  0.8776E+01  0.2468E+02
  -1.080  0.8803E+01  0.2476E+02
  -1.070  0.8772E+01  0.2485E+02
  -1.060  0.8669E+01  0.2494E+02
  -1.050  0.8754E+01  0.2503E+02
  -1.040  0.8747E+01  0.2511E+02
  -1.030  0.8591E+01  0.2520E+02
  -1.020  0.8701E+01  0.2529E+02
  -1.010  0.8694E+01  0.2537E+02
  -1.000  0.8541E+01  0.2546E+02
  -0.990  0.8675E+01  0.2555E+02
  -0.980  0.8580E+01  0.2563E+02
  -0.970  0.8552E+01  0.2572E+02
  -0.960  0.8750E+01  0.2580E+02
  -0.950  0.8622E+01  0.2589E+02
  -0.940  0.8697E+01  0.2598E+02
  -0.930  0.8678E+01  0.2606E+02
  -0.920  0.9209E+01  0.2615E+02
  -0.910  0.8062E+01  0.2624E+02
  -0.900  0.6897E+01  0.2631E+02
  -0.890  0.6493E+01  0.2638E+02
  -0.880  0.5693E+01  0.2644E+02
  -0.870  0.5805E+01  0.2650E+02
  -0.860  0.4904E+01  0.2656E+02
  -0.850  0.4520E+01  0.2661E+02
  -0.840  0.4548E+01  0.2665E+02
  -0.830  0.4659E+01  0.2670E+02
  -0.820  0.4782E+01  0.2675E+02
  -0.810  0.4978E+01  0.2680E+02
  -0.800  0.5233E+01  0.2685E+02
  -0.790  0.5703E+01  0.2690E+02
  -0.780  0.6087E+01  0.2696E+02
  -0.770  0.6068E+01  0.2702E+02
  -0.760  0.5810E+01  0.2708E+02
  -0.750  0.5787E+01  0.2714E+02
  -0.740  0.6099E+01  0.2720E+02
  -0.730  0.6516E+01  0.2726E+02
  -0.720  0.6866E+01  0.2733E+02
  -0.710  0.6797E+01  0.2740E+02
  -0.700  0.6550E+01  0.2747E+02
  -0.690  0.6391E+01  0.2753E+02
  -0.680  0.6297E+01  0.2759E+02
  -0.670  0.6278E+01  0.2766E+02
  -0.660  0.6130E+01  0.2772E+02
  -0.650  0.6098E+01  0.2778E+02
  -0.640  0.5982E+01  0.2784E+02
  -0.630  0.5938E+01  0.2790E+02
  -0.620  0.5874E+01  0.2796E+02
  -0.610  0.5856E+01  0.2802E+02
  -0.600  0.5756E+01  0.2808E+02
  -0.590  0.5738E+01  0.2813E+02
  -0.580  0.5702E+01  0.2819E+02
  -0.570  0.5645E+01  0.2825E+02
  -0.560  0.5662E+01  0.2830E+02
  -0.550  0.5586E+01  0.2836E+02
  -0.540  0.5605E+01  0.2842E+02
  -0.530  0.5523E+01  0.2847E+02
  -0.520  0.5561E+01  0.2853E+02
  -0.510  0.5305E+01  0.2858E+02
  -0.500  0.4808E+01  0.2863E+02
  -0.490  0.4234E+01  0.2868E+02
  -0.480  0.4279E+01  0.2872E+02
  -0.470  0.4249E+01  0.2876E+02
  -0.460  0.4366E+01  0.2880E+02
  -0.450  0.3782E+01  0.2885E+02
  -0.440  0.3470E+01  0.2888E+02
  -0.430  0.3158E+01  0.2891E+02
  -0.420  0.3091E+01  0.2895E+02
  -0.410  0.3129E+01  0.2898E+02
  -0.400  0.3180E+01  0.2901E+02
  -0.390  0.3228E+01  0.2904E+02
  -0.380  0.3278E+01  0.2907E+02
  -0.370  0.3328E+01  0.2911E+02
  -0.360  0.3384E+01  0.2914E+02
  -0.350  0.3444E+01  0.2917E+02
  -0.340  0.3497E+01  0.2921E+02
  -0.330  0.3564E+01  0.2924E+02
  -0.320  0.3627E+01  0.2928E+02
  -0.310  0.3701E+01  0.2932E+02
  -0.300  0.3771E+01  0.2935E+02
  -0.290  0.3850E+01  0.2939E+02
  -0.280  0.3931E+01  0.2943E+02
  -0.270  0.4017E+01  0.2947E+02
  -0.260  0.4113E+01  0.2951E+02
  -0.250  0.4208E+01  0.2955E+02
  -0.240  0.4314E+01  0.2960E+02
  -0.230  0.4425E+01  0.2964E+02
  -0.220  0.4554E+01  0.2968E+02
  -0.210  0.4679E+01  0.2973E+02
  -0.200  0.4822E+01  0.2978E+02
  -0.190  0.4974E+01  0.2983E+02
  -0.180  0.5158E+01  0.2988E+02
  -0.170  0.5336E+01  0.2993E+02
  -0.160  0.5544E+01  0.2998E+02
  -0.150  0.5799E+01  0.3004E+02
  -0.140  0.6064E+01  0.3010E+02
  -0.130  0.6373E+01  0.3016E+02
  -0.120  0.6763E+01  0.3023E+02
  -0.110  0.7236E+01  0.3030E+02
  -0.100  0.7855E+01  0.3037E+02
  -0.090  0.9006E+01  0.3046E+02
  -0.080  0.9732E+01  0.3055E+02
  -0.070  0.1026E+02  0.3065E+02
  -0.060  0.1079E+02  0.3076E+02
  -0.050  0.9533E+01  0.3086E+02
  -0.040  0.9210E+01  0.3095E+02
  -0.030  0.9182E+01  0.3104E+02
  -0.020  0.9526E+01  0.3114E+02
  -0.010  0.1006E+02  0.3123E+02
   0.000  0.1187E+02  0.3134E+02
   0.010  0.1123E+02  0.3146E+02
   0.020  0.1006E+02  0.3157E+02
   0.030  0.8004E+01  0.3166E+02
   0.040  0.5438E+01  0.3173E+02
   0.050  0.4950E+01  0.3178E+02
   0.060  0.4690E+01  0.3183E+02
   0.070  0.4437E+01  0.3188E+02
   0.080  0.4126E+01  0.3192E+02
   0.090  0.4106E+01  0.3196E+02
   0.100  0.1774E+01  0.3199E+02
   0.110  0.6150E+00  0.3200E+02
   0.120  0.0000E+00  0.3200E+02
   0.130  0.0000E+00  0.3200E+02
   0.140  0.0000E+00  0.3200E+02
   0.150  0.0000E+00  0.3200E+02
   0.160  0.0000E+00  0.3200E+02
   0.170  0.0000E+00  0.3200E+02
   0.180  0.0000E+00  0.3200E+02
   0.190  0.0000E+00  0.3200E+02
   0.200  0.0000E+00  0.3200E+02
   0.210  0.0000E+00  0.3200E+02
   0.220  0.0000E+00  0.3200E+02
   0.230  0.0000E+00  0.3200E+02
   0.240  0.0000E+00  0.3200E+02
   0.250  0.0000E+00  0.3200E+02
   0.260  0.0000E+00  0.3200E+02
   0.270  0.0000E+00  0.3200E+02
   0.280  0.0000E+00  0.3200E+02
   0.290  0.0000E+00  0.3200E+02
   0.300  0.0000E+00  0.3200E+02
   0.310  0.0000E+00  0.3200E+02
   0.320  0.0000E+00  0.3200E+02
   0.330  0.0000E+00  0.3200E+02
   0.340  0.0000E+00  0.3200E+02
   0.350  0.0000E+00  0.3200E+02
   0.360  0.0000E+00  0.3200E+02
   0.370  0.0000E+00  0.3200E+02
   0.380  0.0000E+00  0.3200E+02
   0.390  0.0000E+00  0.3200E+02
   0.400  0.0000E+00  0.3200E+02
   0.410  0.0000E+00  0.3200E+02
   0.420  0.0000E+00  0.3200E+02
   0.430  0.0000E+00  0.3200E+02
   0.440  0.0000E+00  0.3200E+02
   0.450  0.0000E+00  0.3200E+02
   0.460  0.0000E+00  0.3200E+02
   0.470  0.0000E+00  0.3200E+02
   0.480  0.0000E+00  0.3200E+02
   0.490  0.0000E+00  0.3200E+02
   0.500  0.0000E+00  0.3200E+02
   0.510  0.0000E+00  0.3200E+02
   0.520  0.0000E+00  0.3200E+02
   0.530  0.0000E+00  0.3200E+02
   0.540  0.0000E+00  0.3200E+02
   0.550  0.0000E+00  0.3200E+02
   0.560  0.0000E+00  0.3200E+02
   0.570  0.0000E+00  0.3200E+02
   0.580  0.0000E+00  0.3200E+02
   0.590  0.0000E+00  0.3200E+02
   0.600  0.0000E+00  0.3200E+02
   0.610  0.0000E+00  0.3200E+02
   0.620  0.0000E+00  0.3200E+02
   0.630  0.0000E+00  0.3200E+02
   0.640  0.0000E+00  0.3200E+02
   0.650  0.0000E+00  0.3200E+02
   0.660  0.0000E+00  0.3200E+02
   0.670  0.0000E+00  0.3200E+02
   0.680  0.0000E+00  0.3200E+02
   0.690  0.0000E+00  0.3200E+02
   0.700  0.0000E+00  0.3200E+02
   0.710  0.0000E+00  0.3200E+02
   0.720  0.0000E+00  0.3200E+02
   0.730  0.0000E+00  0.3200E+02
   0.740  0.0000E+00  0.3200E+02
   0.750  0.0000E+00  0.3200E+02
   0.760  0.0000E+00  0.3200E+02
   0.770  0.0000E+00  0.3200E+02
   0.780  0.0000E+00  0.3200E+02
   0.790  0.0000E+00  0.3200E+02
   0.800  0.0000E+00  0.3200E+02
   0.810  0.0000E+00  0.3200E+02
   0.820  0.0000E+00  0.3200E+02
   0.830  0.0000E+00  0.3200E+02
   0.840  0.0000E+00  0.3200E+02
   0.850  0.0000E+00  0.3200E+02
   0.860  0.0000E+00  0.3200E+02
   0.870  0.0000E+00  0.3200E+02
   0.880  0.0000E+00  0.3200E+02
   0.890  0.0000E+00  0.3200E+02
   0.900  0.0000E+00  0.3200E+02
   0.910  0.0000E+00  0.3200E+02
   0.920  0.0000E+00  0.3200E+02
   0.930  0.0000E+00  0.3200E+02
   0.940  0.0000E+00  0.3200E+02
   0.950  0.0000E+00  0.3200E+02
   0.960  0.0000E+00  0.3200E+02
   0.970  0.0000E+00  0.3200E+02
   0.980  0.0000E+00  0.3200E+02
   0.990  0.0000E+00  0.3200E+02
   1.000  0.0000E+00  0.3200E+02
   1.010  0.0000E+00  0.3200E+02
   1.020  0.0000E+00  0.3200E+02
   1.030  0.0000E+00  0.3200E+02
   1.040  0.0000E+00  0.3200E+02
   1.050  0.0000E+00  0.3200E+02
   1.060  0.0000E+00  0.3200E+02
   1.070  0.0000E+00  0.3200E+02
   1.080  0.0000E+00  0.3200E+02
   1.090  0.0000E+00  0.3200E+02
   1.100  0.0000E+00  0.3200E+02
   1.110  0.0000E+00  0.3200E+02
   1.120  0.0000E+00  0.3200E+02
   1.130  0.0000E+00  0.3200E+02
   1.140  0.0000E+00  0.3200E+02
   1.150  0.0000E+00  0.3200E+02
   1.160  0.0000E+00  0.3200E+02
   1.170  0.0000E+00  0.3200E+02
   1.180  0.0000E+00  0.3200E+02
   1.190  0.0000E+00  0.3200E+02
   1.200  0.0000E+00  0.3200E+02
   1.210  0.0000E+00  0.3200E+02
   1.220  0.0000E+00  0.3200E+02
   1.230  0.0000E+00  0.3200E+02
   1.240  0.0000E+00  0.3200E+02
   1.250  0.0000E+00  0.3200E+02
   1.260  0.0000E+00  0.3200E+02
   1.270  0.0000E+00  0.3200E+02
   1.280  0.0000E+00  0.3200E+02
   1.290  0.2215E-02  0.3200E+02
   1.300  0.1681E-01  0.3200E+02
   1.310  0.2823E-01  0.3200E+02
   1.320  0.4143E-01  0.3200E+02
   1.330  0.5764E-01  0.3200E+02
   1.340  0.7165E-01  0.3200E+02
   1.350  0.8513E-01  0.3200E+02
   1.360  0.9980E-01  0.3200E+02
   1.370  0.1157E+00  0.3200E+02
   1.380  0.1323E+00  0.3201E+02
   1.390  0.1895E+00  0.3201E+02
   1.400  0.2006E+00  0.3201E+02
   1.410  0.2130E+00  0.3201E+02
   1.420  0.2417E+00  0.3201E+02
   1.430  0.2159E+00  0.3202E+02
   1.440  0.2207E+00  0.3202E+02
   1.450  0.2292E+00  0.3202E+02
   1.460  0.2368E+00  0.3202E+02
   1.470  0.2369E+00  0.3203E+02
   1.480  0.2358E+00  0.3203E+02
   1.490  0.2355E+00  0.3203E+02
   1.500  0.2424E+00  0.3203E+02
   1.510  0.2500E+00  0.3203E+02
   1.520  0.2568E+00  0.3204E+02
   1.530  0.2551E+00  0.3204E+02
   1.540  0.2573E+00  0.3204E+02
   1.550  0.2601E+00  0.3205E+02
   1.560  0.2631E+00  0.3205E+02
   1.570  0.2674E+00  0.3205E+02
   1.580  0.2846E+00  0.3205E+02
   1.590  0.3527E+00  0.3206E+02
   1.600  0.3792E+00  0.3206E+02
   1.610  0.4085E+00  0.3206E+02
   1.620  0.4302E+00  0.3207E+02
   1.630  0.4449E+00  0.3207E+02
   1.640  0.4734E+00  0.3208E+02
   1.650  0.5036E+00  0.3208E+02
   1.660  0.5238E+00  0.3209E+02
   1.670  0.5445E+00  0.3209E+02
   1.680  0.5653E+00  0.3210E+02
   1.690  0.5891E+00  0.3210E+02
   1.700  0.6005E+00  0.3211E+02
   1.710  0.6060E+00  0.3212E+02
   1.720  0.6125E+00  0.3212E+02
   1.730  0.6217E+00  0.3213E+02
   1.740  0.6299E+00  0.3213E+02
   1.750  0.6421E+00  0.3214E+02
   1.760  0.6540E+00  0.3215E+02
   1.770  0.6619E+00  0.3215E+02
   1.780  0.6676E+00  0.3216E+02
   1.790  0.6785E+00  0.3217E+02
   1.800  0.6873E+00  0.3217E+02
   1.810  0.7002E+00  0.3218E+02
   1.820  0.7116E+00  0.3219E+02
   1.830  0.7259E+00  0.3220E+02
   1.840  0.7332E+00  0.3220E+02
   1.850  0.7409E+00  0.3221E+02
   1.860  0.7509E+00  0.3222E+02
   1.870  0.7659E+00  0.3223E+02
   1.880  0.7773E+00  0.3223E+02
   1.890  0.7889E+00  0.3224E+02
   1.900  0.8039E+00  0.3225E+02
   1.910  0.8158E+00  0.3226E+02
   1.920  0.8273E+00  0.3226E+02
   1.930  0.8364E+00  0.3227E+02
   1.940  0.8476E+00  0.3228E+02
   1.950  0.8655E+00  0.3229E+02
   1.960  0.8807E+00  0.3230E+02
   1.970  0.8944E+00  0.3231E+02
   1.980  0.9071E+00  0.3232E+02
   1.990  0.9199E+00  0.3233E+02
   2.000  0.9376E+00  0.3234E+02
   2.010  0.9511E+00  0.3234E+02
   2.020  0.9643E+00  0.3235E+02
   2.030  0.9776E+00  0.3236E+02
   2.040  0.9982E+00  0.3237E+02
   2.050  0.1016E+01  0.3238E+02
   2.060  0.1033E+01  0.3239E+02
   2.070  0.1048E+01  0.3240E+02
   2.080  0.1065E+01  0.3242E+02
   2.090  0.1085E+01  0.3243E+02
   2.100  0.1101E+01  0.3244E+02
   2.110  0.1118E+01  0.3245E+02
   2.120  0.1139E+01  0.3246E+02
   2.130  0.1161E+01  0.3247E+02
   2.140  0.1183E+01  0.3248E+02
   2.150  0.1201E+01  0.3249E+02
   2.160  0.1222E+01  0.3251E+02
   2.170  0.1243E+01  0.3252E+02
   2.180  0.1265E+01  0.3253E+02
   2.190  0.1286E+01  0.3254E+02
   2.200  0.1313E+01  0.3256E+02
   2.210  0.1338E+01  0.3257E+02
   2.220  0.1364E+01  0.3258E+02
   2.230  0.1387E+01  0.3260E+02
   2.240  0.1413E+01  0.3261E+02
   2.250  0.1438E+01  0.3263E+02
   2.260  0.1466E+01  0.3264E+02
   2.270  0.1495E+01  0.3266E+02
   2.280  0.1529E+01  0.3267E+02
   2.290  0.1558E+01  0.3269E+02
   2.300  0.1588E+01  0.3270E+02
   2.310  0.1620E+01  0.3272E+02
   2.320  0.1652E+01  0.3273E+02
   2.330  0.1685E+01  0.3275E+02
   2.340  0.1722E+01  0.3277E+02
   2.350  0.1763E+01  0.3279E+02
   2.360  0.1799E+01  0.3280E+02
   2.370  0.1835E+01  0.3282E+02
   2.380  0.1876E+01  0.3284E+02
   2.390  0.1919E+01  0.3286E+02
   2.400  0.1962E+01  0.3288E+02
   2.410  0.2010E+01  0.3290E+02
   2.420  0.2057E+01  0.3292E+02
   2.430  0.2102E+01  0.3294E+02
   2.440  0.2149E+01  0.3296E+02
   2.450  0.2205E+01  0.3298E+02
   2.460  0.2261E+01  0.3300E+02
   2.470  0.2317E+01  0.3303E+02
   2.480  0.2378E+01  0.3305E+02
   2.490  0.2435E+01  0.3307E+02
   2.500  0.2496E+01  0.3310E+02
   2.510  0.2567E+01  0.3312E+02
   2.520  0.2639E+01  0.3315E+02
   2.530  0.2717E+01  0.3318E+02
   2.540  0.2787E+01  0.3321E+02
   2.550  0.2859E+01  0.3323E+02
   2.560  0.2949E+01  0.3326E+02
   2.570  0.3037E+01  0.3329E+02
   2.580  0.3143E+01  0.3332E+02
   2.590  0.3233E+01  0.3335E+02
   2.600  0.3326E+01  0.3339E+02
   2.610  0.3436E+01  0.3342E+02
   2.620  0.3551E+01  0.3346E+02
   2.630  0.3694E+01  0.3349E+02
   2.640  0.3812E+01  0.3353E+02
   2.650  0.3943E+01  0.3357E+02
   2.660  0.4072E+01  0.3361E+02
   2.670  0.4263E+01  0.3365E+02
   2.680  0.4446E+01  0.3369E+02
   2.690  0.4611E+01  0.3374E+02
   2.700  0.4799E+01  0.3379E+02
   2.710  0.5050E+01  0.3384E+02
   2.720  0.5320E+01  0.3389E+02
   2.730  0.5558E+01  0.3394E+02
   2.740  0.5904E+01  0.3400E+02
   2.750  0.6309E+01  0.3406E+02
   2.760  0.6794E+01  0.3413E+02
   2.770  0.7527E+01  0.3420E+02
   2.780  0.9001E+01  0.3428E+02
   2.790  0.1192E+02  0.3437E+02
   2.800  0.8658E+01  0.3446E+02
   2.810  0.9686E+01  0.3455E+02
   2.820  0.9017E+01  0.3465E+02
   2.830  0.7653E+01  0.3473E+02
   2.840  0.6933E+01  0.3480E+02
   2.850  0.6403E+01  0.3487E+02
   2.860  0.6002E+01  0.3493E+02
   2.870  0.5673E+01  0.3499E+02
   2.880  0.5384E+01  0.3505E+02
   2.890  0.5115E+01  0.3510E+02
   2.900  0.4908E+01  0.3515E+02
   2.910  0.4667E+01  0.3520E+02
   2.920  0.4496E+01  0.3524E+02
   2.930  0.4307E+01  0.3529E+02
   2.940  0.4153E+01  0.3533E+02
   2.950  0.3957E+01  0.3537E+02
   2.960  0.3854E+01  0.3541E+02
   2.970  0.3687E+01  0.3545E+02
   2.980  0.3570E+01  0.3548E+02
   2.990  0.3418E+01  0.3552E+02
   3.000  0.3345E+01  0.3555E+02
   3.010  0.3183E+01  0.3558E+02
   3.020  0.3104E+01  0.3561E+02
   3.030  0.2973E+01  0.3565E+02
   3.040  0.2915E+01  0.3567E+02
   3.050  0.2781E+01  0.3570E+02
   3.060  0.2734E+01  0.3573E+02
   3.070  0.2631E+01  0.3576E+02
   3.080  0.2549E+01  0.3578E+02
   3.090  0.2459E+01  0.3581E+02
   3.100  0.2425E+01  0.3583E+02
   3.110  0.2301E+01  0.3586E+02
   3.120  0.2267E+01  0.3588E+02
   3.130  0.2168E+01  0.3590E+02
   3.140  0.2169E+01  0.3592E+02
   3.150  0.2067E+01  0.3594E+02
   3.160  0.2162E+01  0.3596E+02
   3.170  0.1015E+01  0.3598E+02
   3.180  0.1105E+01  0.3599E+02
   3.190  0.5628E-01  0.3600E+02
   3.200  0.0000E+00  0.3600E+02
   3.210  0.0000E+00  0.3600E+02
   3.220  0.0000E+00  0.3600E+02
   3.230  0.0000E+00  0.3600E+02
   3.240  0.0000E+00  0.3600E+02
   3.250  0.0000E+00  0.3600E+02
   3.260  0.0000E+00  0.3600E+02
   3.270  0.0000E+00  0.3600E+02
   3.280  0.0000E+00  0.3600E+02
   3.290  0.0000E+00  0.3600E+02
   3.300  0.0000E+00  0.3600E+02
   3.310  0.0000E+00  0.3600E+02
   3.320  0.0000E+00  0.3600E+02
   3.330  0.0000E+00  0.3600E+02
   3.340  0.0000E+00  0.3600E+02
   3.350  0.0000E+00  0.3600E+02
   3.360  0.0000E+00  0.3600E+02
   3.370  0.0000E+00  0.3600E+02
   3.380  0.0000E+00  0.3600E+02
   3.390  0.0000E+00  0.3600E+02
   3.400  0.0000E+00  0.3600E+02
   3.410  0.0000E+00  0.3600E+02
   3.420  0.0000E+00  0.3600E+02
   3.430  0.0000E+00  0.3600E+02
   3.440  0.0000E+00  0.3600E+02
   3.450  0.0000E+00  0.3600E+02
   3.460  0.0000E+00  0.3600E+02
   3.470  0.0000E+00  0.3600E+02
   3.480  0.0000E+00  0.3600E+02
   3.490  0.0000E+00  0.3600E+02
   3.500  0.0000E+00  0.3600E+02
   3.510  0.0000E+00  0.3600E+02
   3.520  0.0000E+00  0.3600E+02
   3.530  0.0000E+00  0.3600E+02
   3.540  0.0000E+00  0.3600E+02
   3.550  0.0000E+00  0.3600E+02
   3.560  0.0000E+00  0.3600E+02
   3.570  0.0000E+00  0.3600E+02
   3.580  0.0000E+00  0.3600E+02
   3.590  0.0000E+00  0.3600E+02
   3.600  0.0000E+00  0.3600E+02
   3.610  0.0000E+00  0.3600E+02
   3.620  0.0000E+00  0.3600E+02
   3.630  0.0000E+00  0.3600E+02
   3.640  0.0000E+00  0.3600E+02
   3.650  0.0000E+00  0.3600E+02
   3.660  0.0000E+00  0.3600E+02
   3.670  0.0000E+00  0.3600E+02
   3.680  0.0000E+00  0.3600E+02
   3.690  0.0000E+00  0.3600E+02
   3.700  0.0000E+00  0.3600E+02
   3.710  0.0000E+00  0.3600E+02
   3.720  0.0000E+00  0.3600E+02
   3.730  0.0000E+00  0.3600E+02
   3.740  0.0000E+00  0.3600E+02
   3.750  0.0000E+00  0.3600E+02
   3.760  0.0000E+00  0.3600E+02
   3.770  0.0000E+00  0.3600E+02
   3.780  0.0000E+00  0.3600E+02
   3.790  0.0000E+00  0.3600E+02
   3.800  0.0000E+00  0.3600E+02
   3.810  0.5713E-04  0.3600E+02
   3.820  0.2446E-02  0.3600E+02
   3.830  0.1151E-01  0.3600E+02
   3.840  0.1738E-01  0.3600E+02
   3.850  0.2392E-01  0.3600E+02
   3.860  0.3114E-01  0.3600E+02
   3.870  0.3981E-01  0.3600E+02
   3.880  0.4759E-01  0.3600E+02
   3.890  0.5416E-01  0.3600E+02
   3.900  0.6107E-01  0.3600E+02
   3.910  0.6838E-01  0.3600E+02
   3.920  0.7608E-01  0.3600E+02
   3.930  0.8418E-01  0.3600E+02
   3.940  0.9241E-01  0.3601E+02
   3.950  0.1180E+00  0.3601E+02
   3.960  0.1453E+00  0.3601E+02
   3.970  0.1405E+00  0.3601E+02
   3.980  0.1461E+00  0.3601E+02
   3.990  0.1512E+00  0.3601E+02
   4.000  0.1640E+00  0.3601E+02
   4.010  0.1505E+00  0.3602E+02
   4.020  0.1470E+00  0.3602E+02
   4.030  0.1513E+00  0.3602E+02
   4.040  0.1546E+00  0.3602E+02
   4.050  0.1575E+00  0.3602E+02
   4.060  0.1601E+00  0.3602E+02
   4.070  0.1575E+00  0.3602E+02
   4.080  0.1562E+00  0.3603E+02
   4.090  0.1551E+00  0.3603E+02
   4.100  0.1543E+00  0.3603E+02
   4.110  0.1562E+00  0.3603E+02
   4.120  0.1590E+00  0.3603E+02
   4.130  0.1616E+00  0.3603E+02
   4.140  0.1642E+00  0.3604E+02
   4.150  0.1662E+00  0.3604E+02
   4.160  0.1640E+00  0.3604E+02
   4.170  0.1599E+00  0.3604E+02
   4.180  0.1628E+00  0.3604E+02
   4.190  0.1632E+00  0.3604E+02
   4.200  0.1638E+00  0.3605E+02
   4.210  0.1644E+00  0.3605E+02
   4.220  0.1650E+00  0.3605E+02
   4.230  0.1845E+00  0.3605E+02
   4.240  0.2143E+00  0.3605E+02
   4.250  0.2231E+00  0.3606E+02
   4.260  0.2348E+00  0.3606E+02
   4.270  0.2437E+00  0.3606E+02
   4.280  0.2650E+00  0.3606E+02
   4.290  0.2586E+00  0.3607E+02
   4.300  0.2573E+00  0.3607E+02
   4.310  0.2682E+00  0.3607E+02
   4.320  0.2776E+00  0.3607E+02
   4.330  0.2872E+00  0.3608E+02
   4.340  0.2974E+00  0.3608E+02
   4.350  0.3033E+00  0.3608E+02
   4.360  0.3091E+00  0.3608E+02
   4.370  0.3154E+00  0.3609E+02
   4.380  0.3217E+00  0.3609E+02
   4.390  0.3287E+00  0.3609E+02
   4.400  0.3324E+00  0.3610E+02
   4.410  0.3320E+00  0.3610E+02
   4.420  0.3359E+00  0.3610E+02
   4.430  0.3392E+00  0.3611E+02
   4.440  0.3387E+00  0.3611E+02
   4.450  0.3341E+00  0.3611E+02
   4.460  0.3390E+00  0.3612E+02
   4.470  0.3408E+00  0.3612E+02
   4.480  0.3422E+00  0.3612E+02
   4.490  0.3433E+00  0.3613E+02
   4.500  0.3440E+00  0.3613E+02
   4.510  0.3457E+00  0.3613E+02
   4.520  0.3482E+00  0.3614E+02
   4.530  0.3514E+00  0.3614E+02
   4.540  0.3553E+00  0.3615E+02
   4.550  0.3571E+00  0.3615E+02
   4.560  0.3544E+00  0.3615E+02
   4.570  0.3545E+00  0.3616E+02
   4.580  0.3545E+00  0.3616E+02
   4.590  0.3570E+00  0.3616E+02
   4.600  0.3578E+00  0.3617E+02
   4.610  0.3589E+00  0.3617E+02
   4.620  0.3605E+00  0.3617E+02
   4.630  0.3633E+00  0.3618E+02
   4.640  0.3652E+00  0.3618E+02
   4.650  0.3675E+00  0.3618E+02
   4.660  0.3703E+00  0.3619E+02
   4.670  0.3733E+00  0.3619E+02
   4.680  0.3749E+00  0.3620E+02
   4.690  0.3745E+00  0.3620E+02
   4.700  0.3743E+00  0.3620E+02
   4.710  0.3739E+00  0.3621E+02
   4.720  0.3745E+00  0.3621E+02
   4.730  0.3755E+00  0.3621E+02
   4.740  0.3784E+00  0.3622E+02
   4.750  0.3806E+00  0.3622E+02
   4.760  0.3825E+00  0.3623E+02
   4.770  0.3843E+00  0.3623E+02
   4.780  0.3861E+00  0.3623E+02
   4.790  0.3879E+00  0.3624E+02
   4.800  0.3897E+00  0.3624E+02
   4.810  0.3927E+00  0.3625E+02
   4.820  0.3955E+00  0.3625E+02
   4.830  0.3959E+00  0.3625E+02
   4.840  0.3969E+00  0.3626E+02
   4.850  0.3977E+00  0.3626E+02
   4.860  0.3986E+00  0.3627E+02
   4.870  0.3985E+00  0.3627E+02
   4.880  0.3992E+00  0.3627E+02
   4.890  0.4001E+00  0.3628E+02
   4.900  0.4016E+00  0.3628E+02
   4.910  0.4048E+00  0.3629E+02
   4.920  0.4073E+00  0.3629E+02
   4.930  0.4098E+00  0.3629E+02
   4.940  0.4119E+00  0.3630E+02
   4.950  0.4139E+00  0.3630E+02
   4.960  0.4159E+00  0.3631E+02
   4.970  0.4178E+00  0.3631E+02
   4.980  0.4192E+00  0.3631E+02
   4.990  0.4207E+00  0.3632E+02
   5.000  0.4635E+00  0.3632E+02
   5.010  0.6013E+00  0.3633E+02
   5.020  0.7223E+00  0.3633E+02
   5.030  0.9196E+00  0.3634E+02
   5.040  0.1063E+01  0.3635E+02
   5.050  0.1019E+01  0.3636E+02
   5.060  0.1051E+01  0.3637E+02
   5.070  0.1057E+01  0.3638E+02
   5.080  0.1027E+01  0.3639E+02
   5.090  0.1087E+01  0.3640E+02
   5.100  0.1260E+01  0.3642E+02
   5.110  0.1412E+01  0.3643E+02
   5.120  0.1560E+01  0.3645E+02
   5.130  0.1669E+01  0.3646E+02
   5.140  0.1674E+01  0.3648E+02
   5.150  0.1687E+01  0.3650E+02
   5.160  0.1710E+01  0.3651E+02
   5.170  0.1705E+01  0.3653E+02
   5.180  0.1737E+01  0.3655E+02
   5.190  0.1763E+01  0.3656E+02
   5.200  0.1761E+01  0.3658E+02
   5.210  0.1757E+01  0.3660E+02
   5.220  0.1748E+01  0.3662E+02
   5.230  0.1745E+01  0.3663E+02
   5.240  0.1757E+01  0.3665E+02
   5.250  0.1791E+01  0.3667E+02
   5.260  0.1835E+01  0.3669E+02
   5.270  0.1853E+01  0.3671E+02
   5.280  0.1850E+01  0.3672E+02
   5.290  0.1846E+01  0.3674E+02
   5.300  0.1841E+01  0.3676E+02
   5.310  0.1849E+01  0.3678E+02
   5.320  0.1870E+01  0.3680E+02
   5.330  0.1891E+01  0.3682E+02
   5.340  0.1903E+01  0.3684E+02
   5.350  0.1919E+01  0.3686E+02
   5.360  0.1938E+01  0.3687E+02
   5.370  0.1957E+01  0.3689E+02
   5.380  0.1976E+01  0.3691E+02
   5.390  0.1998E+01  0.3693E+02
   5.400  0.2014E+01  0.3695E+02
   5.410  0.2018E+01  0.3697E+02
   5.420  0.2014E+01  0.3699E+02
   5.430  0.2021E+01  0.3701E+02
   5.440  0.2052E+01  0.3703E+02
   5.450  0.2091E+01  0.3706E+02
   5.460  0.2120E+01  0.3708E+02
   5.470  0.2138E+01  0.3710E+02
   5.480  0.2161E+01  0.3712E+02
   5.490  0.2191E+01  0.3714E+02
   5.500  0.2217E+01  0.3716E+02
   5.510  0.2240E+01  0.3719E+02
   5.520  0.2269E+01  0.3721E+02
   5.530  0.2316E+01  0.3723E+02
   5.540  0.2340E+01  0.3725E+02
   5.550  0.2350E+01  0.3728E+02
   5.560  0.2406E+01  0.3730E+02
   5.570  0.2481E+01  0.3733E+02
   5.580  0.2523E+01  0.3735E+02
   5.590  0.2572E+01  0.3738E+02
   5.600  0.2678E+01  0.3740E+02
   5.610  0.2767E+01  0.3743E+02
   5.620  0.2905E+01  0.3746E+02
   5.630  0.3030E+01  0.3749E+02
   5.640  0.4148E+01  0.3752E+02
   5.650  0.5671E+01  0.3757E+02
   5.660  0.6030E+01  0.3762E+02
   5.670  0.5514E+01  0.3769E+02
   5.680  0.4556E+01  0.3774E+02
   5.690  0.3910E+01  0.3778E+02
   5.700  0.3664E+01  0.3782E+02
   5.710  0.3458E+01  0.3785E+02
   5.720  0.3268E+01  0.3788E+02
   5.730  0.3126E+01  0.3792E+02
   5.740  0.3016E+01  0.3795E+02
   5.750  0.2938E+01  0.3798E+02
   5.760  0.2845E+01  0.3801E+02
   5.770  0.2798E+01  0.3803E+02
   5.780  0.2713E+01  0.3806E+02
   5.790  0.2666E+01  0.3809E+02
   5.800  0.2616E+01  0.3811E+02
   5.810  0.2565E+01  0.3814E+02
   5.820  0.2519E+01  0.3817E+02
   5.830  0.2489E+01  0.3819E+02
   5.840  0.2458E+01  0.3822E+02
   5.850  0.2419E+01  0.3824E+02
   5.860  0.2383E+01  0.3826E+02
   5.870  0.2351E+01  0.3829E+02
   5.880  0.2327E+01  0.3831E+02
   5.890  0.2311E+01  0.3833E+02
   5.900  0.2286E+01  0.3836E+02
   5.910  0.2261E+01  0.3838E+02
   5.920  0.2253E+01  0.3840E+02
   5.930  0.2225E+01  0.3843E+02
   5.940  0.2214E+01  0.3845E+02
   5.950  0.2197E+01  0.3847E+02
   5.960  0.2180E+01  0.3849E+02
   5.970  0.2160E+01  0.3851E+02
   5.980  0.2143E+01  0.3853E+02
   5.990  0.2129E+01  0.3856E+02
   6.000  0.2120E+01  0.3858E+02
   6.010  0.2116E+01  0.3860E+02
   6.020  0.2114E+01  0.3862E+02
   6.030  0.2098E+01  0.3864E+02
   6.040  0.2099E+01  0.3866E+02
   6.050  0.2107E+01  0.3868E+02
   6.060  0.2113E+01  0.3870E+02
   6.070  0.2128E+01  0.3872E+02
   6.080  0.2144E+01  0.3875E+02
   6.090  0.2160E+01  0.3877E+02
   6.100  0.2171E+01  0.3879E+02
   6.110  0.2182E+01  0.3881E+02
   6.120  0.2207E+01  0.3883E+02
   6.130  0.2222E+01  0.3886E+02
   6.140  0.2243E+01  0.3888E+02
   6.150  0.2265E+01  0.3890E+02
   6.160  0.2285E+01  0.3892E+02
   6.170  0.2306E+01  0.3895E+02
   6.180  0.2330E+01  0.3897E+02
   6.190  0.2356E+01  0.3899E+02
   6.200  0.2396E+01  0.3902E+02
   6.210  0.2438E+01  0.3904E+02
   6.220  0.2487E+01  0.3906E+02
   6.230  0.2620E+01  0.3909E+02
   6.240  0.2704E+01  0.3912E+02
   6.250  0.2721E+01  0.3914E+02
   6.260  0.2746E+01  0.3917E+02
   6.270  0.2794E+01  0.3920E+02
   6.280  0.2808E+01  0.3923E+02
   6.290  0.2810E+01  0.3926E+02
   6.300  0.2703E+01  0.3928E+02
   6.310  0.2666E+01  0.3931E+02
   6.320  0.2850E+01  0.3934E+02
   6.330  0.3030E+01  0.3937E+02
   6.340  0.2919E+01  0.3940E+02
   6.350  0.2859E+01  0.3943E+02
   6.360  0.2858E+01  0.3946E+02
   6.370  0.2877E+01  0.3948E+02
   6.380  0.2841E+01  0.3951E+02
   6.390  0.2805E+01  0.3954E+02
   6.400  0.2705E+01  0.3957E+02
   6.410  0.2569E+01  0.3960E+02
   6.420  0.2529E+01  0.3962E+02
   6.430  0.2472E+01  0.3965E+02
   6.440  0.2408E+01  0.3967E+02
   6.450  0.2346E+01  0.3969E+02
   6.460  0.2295E+01  0.3972E+02
   6.470  0.2267E+01  0.3974E+02
   6.480  0.2253E+01  0.3976E+02
   6.490  0.2229E+01  0.3978E+02
   6.500  0.2206E+01  0.3981E+02
   6.510  0.2173E+01  0.3983E+02
   6.520  0.2184E+01  0.3985E+02
   6.530  0.2183E+01  0.3987E+02
   6.540  0.2157E+01  0.3989E+02
   6.550  0.2126E+01  0.3992E+02
   6.560  0.2117E+01  0.3994E+02
   6.570  0.1987E+01  0.3996E+02
   6.580  0.1951E+01  0.3998E+02
   6.590  0.1930E+01  0.4000E+02
   6.600  0.1910E+01  0.4002E+02
   6.610  0.1895E+01  0.4003E+02
   6.620  0.1995E+01  0.4005E+02
   6.630  0.2031E+01  0.4007E+02
   6.640  0.2032E+01  0.4010E+02
   6.650  0.2041E+01  0.4012E+02
   6.660  0.2069E+01  0.4014E+02
   6.670  0.2077E+01  0.4016E+02
   6.680  0.2081E+01  0.4018E+02
   6.690  0.2090E+01  0.4020E+02
   6.700  0.2115E+01  0.4022E+02
   6.710  0.2139E+01  0.4024E+02
   6.720  0.2174E+01  0.4026E+02
   6.730  0.2180E+01  0.4028E+02
   6.740  0.2175E+01  0.4031E+02
   6.750  0.2188E+01  0.4033E+02
   6.760  0.2267E+01  0.4035E+02
   6.770  0.2321E+01  0.4037E+02
   6.780  0.2402E+01  0.4040E+02
   6.790  0.2473E+01  0.4042E+02
   6.800  0.2554E+01  0.4045E+02
   6.810  0.2584E+01  0.4047E+02
   6.820  0.2571E+01  0.4050E+02
   6.830  0.2608E+01  0.4052E+02
   6.840  0.2864E+01  0.4055E+02
   6.850  0.2617E+01  0.4058E+02
   6.860  0.2405E+01  0.4060E+02
   6.870  0.2384E+01  0.4063E+02
   6.880  0.2352E+01  0.4065E+02
   6.890  0.2224E+01  0.4067E+02
   6.900  0.2155E+01  0.4070E+02
   6.910  0.2121E+01  0.4072E+02
   6.920  0.2079E+01  0.4074E+02
   6.930  0.2029E+01  0.4076E+02
   6.940  0.1996E+01  0.4078E+02
   6.950  0.2011E+01  0.4080E+02
   6.960  0.2045E+01  0.4082E+02
   6.970  0.2055E+01  0.4084E+02
   6.980  0.2138E+01  0.4086E+02
   6.990  0.2046E+01  0.4088E+02
   7.000  0.2064E+01  0.4090E+02
   7.010  0.2104E+01  0.4092E+02
   7.020  0.2141E+01  0.4094E+02
   7.030  0.2175E+01  0.4097E+02
   7.040  0.2194E+01  0.4099E+02
   7.050  0.2202E+01  0.4101E+02
   7.060  0.2200E+01  0.4103E+02
   7.070  0.2218E+01  0.4105E+02
   7.080  0.2289E+01  0.4108E+02
   7.090  0.2345E+01  0.4110E+02
   7.100  0.2357E+01  0.4112E+02
   7.110  0.2386E+01  0.4115E+02
   7.120  0.2455E+01  0.4117E+02
   7.130  0.2493E+01  0.4120E+02
   7.140  0.2546E+01  0.4122E+02
   7.150  0.2606E+01  0.4125E+02
   7.160  0.2649E+01  0.4127E+02
   7.170  0.2712E+01  0.4130E+02
   7.180  0.2739E+01  0.4133E+02
   7.190  0.2755E+01  0.4136E+02
   7.200  0.2784E+01  0.4138E+02
   7.210  0.2829E+01  0.4141E+02
   7.220  0.2864E+01  0.4144E+02
   7.230  0.3010E+01  0.4147E+02
   7.240  0.2993E+01  0.4150E+02
   7.250  0.2962E+01  0.4153E+02
   7.260  0.3053E+01  0.4156E+02
   7.270  0.3131E+01  0.4159E+02
   7.280  0.3245E+01  0.4162E+02
   7.290  0.3172E+01  0.4165E+02
   7.300  0.3219E+01  0.4168E+02
   7.310  0.3199E+01  0.4172E+02
   7.320  0.3215E+01  0.4175E+02
   7.330  0.3217E+01  0.4178E+02
   7.340  0.3196E+01  0.4181E+02
   7.350  0.3232E+01  0.4184E+02
   7.360  0.3249E+01  0.4188E+02
   7.370  0.3393E+01  0.4191E+02
   7.380  0.3195E+01  0.4194E+02
   7.390  0.3057E+01  0.4197E+02
   7.400  0.2977E+01  0.4200E+02
   7.410  0.2883E+01  0.4203E+02
   7.420  0.2815E+01  0.4206E+02
   7.430  0.2759E+01  0.4209E+02
   7.440  0.2712E+01  0.4212E+02
   7.450  0.2693E+01  0.4214E+02
   7.460  0.2610E+01  0.4217E+02
   7.470  0.2602E+01  0.4220E+02
   7.480  0.2559E+01  0.4222E+02
   7.490  0.2522E+01  0.4225E+02
   7.500  0.2501E+01  0.4227E+02
   7.510  0.2501E+01  0.4230E+02
   7.520  0.2620E+01  0.4232E+02
   7.530  0.2595E+01  0.4235E+02
   7.540  0.2658E+01  0.4238E+02
   7.550  0.2802E+01  0.4240E+02
   7.560  0.2666E+01  0.4243E+02
   7.570  0.2553E+01  0.4246E+02
   7.580  0.2537E+01  0.4248E+02
   7.590  0.2489E+01  0.4251E+02
   7.600  0.2456E+01  0.4253E+02
   7.610  0.2413E+01  0.4256E+02
   7.620  0.2382E+01  0.4258E+02
   7.630  0.2335E+01  0.4260E+02
   7.640  0.2278E+01  0.4263E+02
   7.650  0.2193E+01  0.4265E+02
   7.660  0.2097E+01  0.4267E+02
   7.670  0.2024E+01  0.4269E+02
   7.680  0.1975E+01  0.4271E+02
   7.690  0.1934E+01  0.4273E+02
   7.700  0.1899E+01  0.4275E+02
   7.710  0.1873E+01  0.4277E+02
   7.720  0.1852E+01  0.4279E+02
   7.730  0.1836E+01  0.4281E+02
   7.740  0.1841E+01  0.4283E+02
   7.750  0.1865E+01  0.4284E+02
   7.760  0.1929E+01  0.4286E+02
   7.770  0.1894E+01  0.4288E+02
   7.780  0.1877E+01  0.4290E+02
   7.790  0.1875E+01  0.4292E+02
   7.800  0.1868E+01  0.4294E+02
   7.810  0.1854E+01  0.4296E+02
   7.820  0.1850E+01  0.4298E+02
   7.830  0.1851E+01  0.4299E+02
   7.840  0.1851E+01  0.4301E+02
   7.850  0.1856E+01  0.4303E+02
   7.860  0.1851E+01  0.4305E+02
   7.870  0.1855E+01  0.4307E+02
   7.880  0.1855E+01  0.4309E+02
   7.890  0.1867E+01  0.4310E+02
   7.900  0.1878E+01  0.4312E+02
   7.910  0.1894E+01  0.4314E+02
   7.920  0.1904E+01  0.4316E+02
   7.930  0.1907E+01  0.4318E+02
   7.940  0.1904E+01  0.4320E+02
   7.950  0.1917E+01  0.4322E+02
   7.960  0.1918E+01  0.4324E+02
   7.970  0.1914E+01  0.4326E+02
   7.980  0.1911E+01  0.4328E+02
   7.990  0.1928E+01  0.4330E+02
   8.000  0.1944E+01  0.4331E+02
   8.010  0.1963E+01  0.4333E+02
   8.020  0.1992E+01  0.4335E+02
   8.030  0.2023E+01  0.4337E+02
   8.040  0.2042E+01  0.4339E+02
   8.050  0.2078E+01  0.4342E+02
   8.060  0.2094E+01  0.4344E+02
   8.070  0.2102E+01  0.4346E+02
   8.080  0.2120E+01  0.4348E+02
   8.090  0.2144E+01  0.4350E+02
   8.100  0.2175E+01  0.4352E+02
   8.110  0.2213E+01  0.4354E+02
   8.120  0.2371E+01  0.4357E+02
   8.130  0.2444E+01  0.4359E+02
   8.140  0.2533E+01  0.4361E+02
   8.150  0.2592E+01  0.4364E+02
   8.160  0.2658E+01  0.4367E+02
   8.170  0.2757E+01  0.4369E+02
   8.180  0.2849E+01  0.4372E+02
   8.190  0.2875E+01  0.4375E+02
   8.200  0.2883E+01  0.4378E+02
   8.210  0.2931E+01  0.4381E+02
   8.220  0.2973E+01  0.4384E+02
   8.230  0.3039E+01  0.4387E+02
   8.240  0.3059E+01  0.4390E+02
   8.250  0.3320E+01  0.4393E+02
   8.260  0.3147E+01  0.4396E+02
   8.270  0.3065E+01  0.4399E+02
   8.280  0.3015E+01  0.4402E+02
   8.290  0.2976E+01  0.4405E+02
   8.300  0.2992E+01  0.4408E+02
   8.310  0.3010E+01  0.4411E+02
   8.320  0.3015E+01  0.4414E+02
   8.330  0.3014E+01  0.4417E+02
   8.340  0.3033E+01  0.4420E+02
   8.350  0.3095E+01  0.4423E+02
   8.360  0.3179E+01  0.4427E+02
   8.370  0.3317E+01  0.4430E+02
   8.380  0.3607E+01  0.4433E+02
   8.390  0.3714E+01  0.4437E+02
   8.400  0.3833E+01  0.4441E+02
   8.410  0.3713E+01  0.4445E+02
   8.420  0.3495E+01  0.4448E+02
   8.430  0.3380E+01  0.4452E+02
   8.440  0.3341E+01  0.4455E+02
   8.450  0.3313E+01  0.4459E+02
   8.460  0.3330E+01  0.4462E+02
   8.470  0.3389E+01  0.4465E+02
   8.480  0.3726E+01  0.4469E+02
   8.490  0.4014E+01  0.4473E+02
   8.500  0.4231E+01  0.4477E+02
   8.510  0.4155E+01  0.4481E+02
   8.520  0.4160E+01  0.4485E+02
   8.530  0.4269E+01  0.4490E+02
   8.540  0.4184E+01  0.4494E+02
   8.550  0.4034E+01  0.4498E+02
   8.560  0.3902E+01  0.4502E+02
   8.570  0.3842E+01  0.4506E+02
   8.580  0.3778E+01  0.4510E+02
   8.590  0.3727E+01  0.4513E+02
   8.600  0.3707E+01  0.4517E+02
   8.610  0.3789E+01  0.4521E+02
   8.620  0.3784E+01  0.4525E+02
   8.630  0.3641E+01  0.4528E+02
   8.640  0.3550E+01  0.4532E+02
   8.650  0.3480E+01  0.4536E+02
   8.660  0.3410E+01  0.4539E+02
   8.670  0.3391E+01  0.4542E+02
   8.680  0.3397E+01  0.4546E+02
   8.690  0.3427E+01  0.4549E+02
   8.700  0.3484E+01  0.4553E+02
   8.710  0.3552E+01  0.4556E+02
   8.720  0.3643E+01  0.4560E+02
   8.730  0.3753E+01  0.4563E+02
   8.740  0.3904E+01  0.4567E+02
   8.750  0.4082E+01  0.4571E+02
   8.760  0.4271E+01  0.4575E+02
   8.770  0.4608E+01  0.4580E+02
   8.780  0.4749E+01  0.4585E+02
   8.790  0.4946E+01  0.4589E+02
   8.800  0.4971E+01  0.4594E+02
   8.810  0.5038E+01  0.4599E+02
   8.820  0.5068E+01  0.4604E+02
   8.830  0.5080E+01  0.4610E+02
   8.840  0.5049E+01  0.4615E+02
   8.850  0.5095E+01  0.4620E+02
   8.860  0.5169E+01  0.4625E+02
   8.870  0.5387E+01  0.4630E+02
   8.880  0.5663E+01  0.4636E+02
   8.890  0.5834E+01  0.4641E+02
   8.900  0.5614E+01  0.4647E+02
   8.910  0.5393E+01  0.4653E+02
   8.920  0.5411E+01  0.4658E+02
   8.930  0.5394E+01  0.4664E+02
   8.940  0.5294E+01  0.4669E+02
   8.950  0.5211E+01  0.4674E+02
   8.960  0.5371E+01  0.4679E+02
   8.970  0.5464E+01  0.4685E+02
   8.980  0.5522E+01  0.4690E+02
   8.990  0.5460E+01  0.4696E+02
   9.000  0.5018E+01  0.4701E+02
   9.010  0.4360E+01  0.4706E+02
   9.020  0.4238E+01  0.4710E+02
   9.030  0.4184E+01  0.4715E+02
   9.040  0.3888E+01  0.4719E+02
   9.050  0.3663E+01  0.4722E+02
   9.060  0.3629E+01  0.4726E+02
   9.070  0.3436E+01  0.4730E+02
   9.080  0.3407E+01  0.4733E+02
   9.090  0.3817E+01  0.4736E+02
   9.100  0.4422E+01  0.4741E+02
   9.110  0.3841E+01  0.4745E+02
   9.120  0.3567E+01  0.4749E+02
   9.130  0.3429E+01  0.4752E+02
   9.140  0.3221E+01  0.4756E+02
   9.150  0.3223E+01  0.4759E+02
   9.160  0.2984E+01  0.4762E+02
   9.170  0.2974E+01  0.4765E+02
   9.180  0.2984E+01  0.4768E+02
   9.190  0.3020E+01  0.4771E+02
   9.200  0.3120E+01  0.4774E+02
   9.210  0.3268E+01  0.4777E+02
   9.220  0.3398E+01  0.4781E+02
   9.230  0.3405E+01  0.4784E+02
   9.240  0.3381E+01  0.4787E+02
   9.250  0.3427E+01  0.4791E+02
   9.260  0.3597E+01  0.4794E+02
   9.270  0.3740E+01  0.4798E+02
   9.280  0.3820E+01  0.4802E+02
   9.290  0.4416E+01  0.4806E+02
   9.300  0.4684E+01  0.4811E+02
   9.310  0.5156E+01  0.4815E+02
   9.320  0.5244E+01  0.4821E+02
   9.330  0.5218E+01  0.4826E+02
   9.340  0.5501E+01  0.4831E+02
   9.350  0.5318E+01  0.4837E+02
   9.360  0.5507E+01  0.4842E+02
   9.370  0.5448E+01  0.4848E+02
   9.380  0.5716E+01  0.4853E+02
   9.390  0.5745E+01  0.4859E+02
   9.400  0.5496E+01  0.4864E+02
   9.410  0.5460E+01  0.4870E+02
   9.420  0.5825E+01  0.4876E+02
   9.430  0.5618E+01  0.4882E+02
   9.440  0.5402E+01  0.4887E+02
   9.450  0.5474E+01  0.4892E+02
   9.460  0.7018E+01  0.4898E+02
   9.470  0.6179E+01  0.4904E+02
   9.480  0.5200E+01  0.4910E+02
   9.490  0.4920E+01  0.4915E+02
   9.500  0.4859E+01  0.4920E+02
   9.510  0.4685E+01  0.4925E+02
   9.520  0.4570E+01  0.4929E+02
   9.530  0.4498E+01  0.4934E+02
   9.540  0.4328E+01  0.4938E+02
   9.550  0.4245E+01  0.4943E+02
   9.560  0.4090E+01  0.4947E+02
   9.570  0.3877E+01  0.4951E+02
   9.580  0.3719E+01  0.4955E+02
   9.590  0.3582E+01  0.4958E+02
   9.600  0.3562E+01  0.4962E+02
   9.610  0.3445E+01  0.4965E+02
   9.620  0.3268E+01  0.4969E+02
   9.630  0.3092E+01  0.4972E+02
   9.640  0.2994E+01  0.4975E+02
   9.650  0.2895E+01  0.4978E+02
   9.660  0.2855E+01  0.4981E+02
   9.670  0.2896E+01  0.4983E+02
   9.680  0.2972E+01  0.4986E+02
   9.690  0.3037E+01  0.4989E+02
   9.700  0.3105E+01  0.4992E+02
   9.710  0.3203E+01  0.4996E+02
   9.720  0.3287E+01  0.4999E+02
   9.730  0.3395E+01  0.5002E+02
   9.740  0.3528E+01  0.5006E+02
   9.750  0.3683E+01  0.5009E+02
   9.760  0.4265E+01  0.5013E+02
   9.770  0.4404E+01  0.5018E+02
   9.780  0.4591E+01  0.5022E+02
   9.790  0.4875E+01  0.5027E+02
   9.800  0.5086E+01  0.5032E+02
   9.810  0.5444E+01  0.5037E+02
   9.820  0.5894E+01  0.5043E+02
   9.830  0.6315E+01  0.5049E+02
   9.840  0.6797E+01  0.5055E+02
   9.850  0.7326E+01  0.5062E+02
   9.860  0.7956E+01  0.5070E+02
   9.870  0.9125E+01  0.5079E+02
   9.880  0.1044E+02  0.5089E+02
   9.890  0.1046E+02  0.5099E+02
   9.900  0.1025E+02  0.5110E+02
   9.910  0.9504E+01  0.5120E+02
   9.920  0.8839E+01  0.5129E+02
   9.930  0.8520E+01  0.5137E+02
   9.940  0.8593E+01  0.5146E+02
   9.950  0.8499E+01  0.5155E+02
   9.960  0.7973E+01  0.5163E+02
   9.970  0.1591E+02  0.5176E+02
   9.980  0.1051E+02  0.5187E+02
   9.990  0.9938E+01  0.5197E+02
  10.000  0.9135E+01  0.5207E+02
  10.010  0.7793E+01  0.5216E+02
  10.020  0.6794E+01  0.5223E+02
  10.030  0.6561E+01  0.5229E+02
  10.040  0.6393E+01  0.5236E+02
  10.050  0.5909E+01  0.5242E+02
  10.060  0.5787E+01  0.5248E+02
  10.070  0.5631E+01  0.5254E+02
  10.080  0.5537E+01  0.5259E+02
  10.090  0.5451E+01  0.5265E+02
  10.100  0.5328E+01  0.5270E+02
  10.110  0.5223E+01  0.5275E+02
  10.120  0.5157E+01  0.5281E+02
  10.130  0.5068E+01  0.5286E+02
  10.140  0.4921E+01  0.5291E+02
  10.150  0.4720E+01  0.5296E+02
  10.160  0.4583E+01  0.5300E+02
  10.170  0.4754E+01  0.5305E+02
  10.180  0.4797E+01  0.5310E+02
  10.190  0.5012E+01  0.5315E+02
  10.200  0.5208E+01  0.5320E+02
  10.210  0.5267E+01  0.5325E+02
  10.220  0.5426E+01  0.5330E+02
  10.230  0.5571E+01  0.5336E+02
  10.240  0.5586E+01  0.5341E+02
  10.250  0.5715E+01  0.5347E+02
  10.260  0.5725E+01  0.5353E+02
  10.270  0.5746E+01  0.5358E+02
  10.280  0.5694E+01  0.5364E+02
  10.290  0.5662E+01  0.5370E+02
  10.300  0.5678E+01  0.5375E+02
  10.310  0.5492E+01  0.5381E+02
  10.320  0.5512E+01  0.5387E+02
  10.330  0.5513E+01  0.5392E+02
  10.340  0.5561E+01  0.5398E+02
  10.350  0.5547E+01  0.5403E+02
  10.360  0.5594E+01  0.5409E+02
  10.370  0.5613E+01  0.5414E+02
  10.380  0.5646E+01  0.5420E+02
  10.390  0.5688E+01  0.5426E+02
  10.400  0.5676E+01  0.5431E+02
  10.410  0.5639E+01  0.5437E+02
  10.420  0.5780E+01  0.5443E+02
  10.430  0.5684E+01  0.5448E+02
  10.440  0.5720E+01  0.5454E+02
  10.450  0.5705E+01  0.5460E+02
  10.460  0.5709E+01  0.5465E+02
  10.470  0.5759E+01  0.5471E+02
  10.480  0.5870E+01  0.5477E+02
  10.490  0.6125E+01  0.5483E+02
  10.500  0.5635E+01  0.5489E+02
  10.510  0.5254E+01  0.5495E+02
  10.520  0.5086E+01  0.5500E+02
  10.530  0.4981E+01  0.5505E+02
  10.540  0.4861E+01  0.5510E+02
  10.550  0.4769E+01  0.5514E+02
  10.560  0.4698E+01  0.5519E+02
  10.570  0.4627E+01  0.5524E+02
  10.580  0.4563E+01  0.5528E+02
  10.590  0.4526E+01  0.5533E+02
  10.600  0.4464E+01  0.5537E+02
  10.610  0.4430E+01  0.5542E+02
  10.620  0.4437E+01  0.5546E+02
  10.630  0.4456E+01  0.5551E+02
  10.640  0.4480E+01  0.5555E+02
  10.650  0.4506E+01  0.5560E+02
  10.660  0.4546E+01  0.5564E+02
  10.670  0.4617E+01  0.5569E+02
  10.680  0.4710E+01  0.5574E+02
  10.690  0.4817E+01  0.5578E+02
  10.700  0.4923E+01  0.5583E+02
  10.710  0.5017E+01  0.5588E+02
  10.720  0.5145E+01  0.5593E+02
  10.730  0.5286E+01  0.5598E+02
  10.740  0.5565E+01  0.5604E+02
  10.750  0.5677E+01  0.5609E+02
  10.760  0.5793E+01  0.5615E+02
  10.770  0.6094E+01  0.5621E+02
  10.780  0.6285E+01  0.5627E+02
  10.790  0.6373E+01  0.5634E+02
  10.800  0.6480E+01  0.5640E+02
  10.810  0.6652E+01  0.5647E+02
  10.820  0.6707E+01  0.5653E+02
  10.830  0.6809E+01  0.5660E+02
  10.840  0.6914E+01  0.5667E+02
  10.850  0.6742E+01  0.5674E+02
  10.860  0.5979E+01  0.5680E+02
  10.870  0.6068E+01  0.5686E+02
  10.880  0.5828E+01  0.5692E+02
  10.890  0.5327E+01  0.5698E+02
  10.900  0.4893E+01  0.5703E+02
  10.910  0.4616E+01  0.5708E+02
  10.920  0.4471E+01  0.5712E+02
  10.930  0.4291E+01  0.5717E+02
  10.940  0.4335E+01  0.5721E+02
  10.950  0.4141E+01  0.5725E+02
  10.960  0.3567E+01  0.5729E+02
  10.970  0.3536E+01  0.5733E+02
  10.980  0.3499E+01  0.5736E+02
  10.990  0.3461E+01  0.5740E+02
  11.000  0.3429E+01  0.5743E+02
  11.010  0.3408E+01  0.5746E+02
  11.020  0.3395E+01  0.5750E+02
  11.030  0.3387E+01  0.5753E+02
  11.040  0.3382E+01  0.5757E+02
  11.050  0.3375E+01  0.5760E+02
  11.060  0.3372E+01  0.5763E+02
  11.070  0.3347E+01  0.5767E+02
  11.080  0.3356E+01  0.5770E+02
  11.090  0.3383E+01  0.5773E+02
  11.100  0.3459E+01  0.5777E+02
  11.110  0.3491E+01  0.5780E+02
  11.120  0.3648E+01  0.5784E+02
  11.130  0.3717E+01  0.5788E+02
  11.140  0.3818E+01  0.5791E+02
  11.150  0.3871E+01  0.5795E+02
  11.160  0.3892E+01  0.5799E+02
  11.170  0.3869E+01  0.5803E+02
  11.180  0.3825E+01  0.5807E+02
  11.190  0.3739E+01  0.5811E+02
  11.200  0.3564E+01  0.5814E+02
  11.210  0.3434E+01  0.5818E+02
  11.220  0.3420E+01  0.5821E+02
  11.230  0.3320E+01  0.5825E+02
  11.240  0.3239E+01  0.5828E+02
  11.250  0.3191E+01  0.5831E+02
  11.260  0.3177E+01  0.5834E+02
  11.270  0.3114E+01  0.5837E+02
  11.280  0.3050E+01  0.5841E+02
  11.290  0.3015E+01  0.5844E+02
  11.300  0.2980E+01  0.5847E+02
  11.310  0.2971E+01  0.5850E+02
  11.320  0.2884E+01  0.5852E+02
  11.330  0.2848E+01  0.5855E+02
  11.340  0.2816E+01  0.5858E+02
  11.350  0.2786E+01  0.5861E+02
  11.360  0.2813E+01  0.5864E+02
  11.370  0.2791E+01  0.5867E+02
  11.380  0.2774E+01  0.5869E+02
  11.390  0.2743E+01  0.5872E+02
  11.400  0.2733E+01  0.5875E+02
  11.410  0.2723E+01  0.5878E+02
  11.420  0.2727E+01  0.5880E+02
  11.430  0.2697E+01  0.5883E+02
  11.440  0.2696E+01  0.5886E+02
  11.450  0.2713E+01  0.5888E+02
  11.460  0.3313E+01  0.5891E+02
  11.470  0.4251E+01  0.5895E+02
  11.480  0.5466E+01  0.5900E+02
  11.490  0.6070E+01  0.5906E+02
  11.500  0.6421E+01  0.5912E+02
  11.510  0.6662E+01  0.5919E+02
  11.520  0.7793E+01  0.5926E+02
  11.530  0.8794E+01  0.5934E+02
  11.540  0.1011E+02  0.5943E+02
  11.550  0.1194E+02  0.5954E+02
  11.560  0.1524E+02  0.5968E+02
  11.570  0.1148E+02  0.5981E+02
  11.580  0.1069E+02  0.5992E+02
  11.590  0.1023E+02  0.6002E+02
  11.600  0.9989E+01  0.6012E+02
  11.610  0.1016E+02  0.6022E+02
  11.620  0.9122E+01  0.6032E+02
  11.630  0.8555E+01  0.6041E+02
  11.640  0.8311E+01  0.6049E+02
  11.650  0.8161E+01  0.6058E+02
  11.660  0.8374E+01  0.6066E+02
  11.670  0.9160E+01  0.6075E+02
  11.680  0.8512E+01  0.6083E+02
  11.690  0.1005E+02  0.6092E+02
  11.700  0.1272E+02  0.6103E+02
  11.710  0.1154E+02  0.6116E+02
  11.720  0.1150E+02  0.6129E+02
  11.730  0.8483E+01  0.6138E+02
  11.740  0.4727E+01  0.6144E+02
  11.750  0.4376E+01  0.6149E+02
  11.760  0.4164E+01  0.6153E+02
  11.770  0.4027E+01  0.6157E+02
  11.780  0.3607E+01  0.6161E+02
  11.790  0.3536E+01  0.6165E+02
  11.800  0.3435E+01  0.6168E+02
  11.810  0.3357E+01  0.6171E+02
  11.820  0.3281E+01  0.6175E+02
  11.830  0.3219E+01  0.6178E+02
  11.840  0.3153E+01  0.6181E+02
  11.850  0.3101E+01  0.6184E+02
  11.860  0.3046E+01  0.6187E+02
  11.870  0.2991E+01  0.6190E+02
  11.880  0.2942E+01  0.6193E+02
  11.890  0.2930E+01  0.6196E+02
  11.900  0.2866E+01  0.6199E+02
  11.910  0.2809E+01  0.6202E+02
  11.920  0.2758E+01  0.6205E+02
  11.930  0.2719E+01  0.6208E+02
  11.940  0.2676E+01  0.6210E+02
  11.950  0.2634E+01  0.6213E+02
  11.960  0.2591E+01  0.6216E+02
  11.970  0.2552E+01  0.6218E+02
  11.980  0.2515E+01  0.6221E+02
  11.990  0.2478E+01  0.6223E+02
  12.000  0.2453E+01  0.6226E+02
  12.010  0.2410E+01  0.6228E+02
  12.020  0.2370E+01  0.6230E+02
  12.030  0.2349E+01  0.6233E+02
  12.040  0.2322E+01  0.6235E+02
  12.050  0.2290E+01  0.6237E+02
  12.060  0.2259E+01  0.6240E+02
  12.070  0.2234E+01  0.6242E+02
  12.080  0.2212E+01  0.6244E+02
  12.090  0.2190E+01  0.6246E+02
  12.100  0.2172E+01  0.6249E+02
  12.110  0.2165E+01  0.6251E+02
  12.120  0.2153E+01  0.6253E+02
  12.130  0.2143E+01  0.6255E+02
  12.140  0.2131E+01  0.6257E+02
  12.150  0.2117E+01  0.6259E+02
  12.160  0.2111E+01  0.6261E+02
  12.170  0.2116E+01  0.6264E+02
  12.180  0.2128E+01  0.6266E+02
  12.190  0.2161E+01  0.6268E+02
  12.200  0.2177E+01  0.6270E+02
  12.210  0.2213E+01  0.6272E+02
  12.220  0.2275E+01  0.6274E+02
  12.230  0.2322E+01  0.6277E+02
  12.240  0.2390E+01  0.6279E+02
  12.250  0.2492E+01  0.6281E+02
  12.260  0.2621E+01  0.6284E+02
  12.270  0.2780E+01  0.6287E+02
  12.280  0.3012E+01  0.6290E+02
  12.290  0.3218E+01  0.6293E+02
  12.300  0.3471E+01  0.6296E+02
  12.310  0.3760E+01  0.6300E+02
  12.320  0.3221E+01  0.6303E+02
  12.330  0.3149E+01  0.6307E+02
  12.340  0.2791E+01  0.6310E+02
  12.350  0.2661E+01  0.6312E+02
  12.360  0.2419E+01  0.6315E+02
  12.370  0.2429E+01  0.6317E+02
  12.380  0.2513E+01  0.6320E+02
  12.390  0.2503E+01  0.6322E+02
  12.400  0.2626E+01  0.6325E+02
  12.410  0.2953E+01  0.6327E+02
  12.420  0.2933E+01  0.6330E+02
  12.430  0.3125E+01  0.6333E+02
  12.440  0.3317E+01  0.6336E+02
  12.450  0.3499E+01  0.6340E+02
  12.460  0.3660E+01  0.6344E+02
  12.470  0.3804E+01  0.6347E+02
  12.480  0.3860E+01  0.6351E+02
  12.490  0.3865E+01  0.6355E+02
  12.500  0.3919E+01  0.6359E+02
  12.510  0.3922E+01  0.6363E+02
  12.520  0.3933E+01  0.6367E+02
  12.530  0.4014E+01  0.6371E+02
  12.540  0.4065E+01  0.6375E+02
  12.550  0.4115E+01  0.6379E+02
  12.560  0.4192E+01  0.6383E+02
  12.570  0.4260E+01  0.6387E+02
  12.580  0.4376E+01  0.6392E+02
  12.590  0.4510E+01  0.6396E+02
  12.600  0.4794E+01  0.6401E+02
  12.610  0.5006E+01  0.6406E+02
  12.620  0.5842E+01  0.6411E+02
  12.630  0.6419E+01  0.6418E+02
  12.640  0.5367E+01  0.6423E+02
  12.650  0.5976E+01  0.6429E+02
  12.660  0.5666E+01  0.6435E+02
  12.670  0.5166E+01  0.6440E+02
  12.680  0.4957E+01  0.6445E+02
  12.690  0.4882E+01  0.6450E+02
  12.700  0.4424E+01  0.6455E+02
  12.710  0.4154E+01  0.6459E+02
  12.720  0.3891E+01  0.6463E+02
  12.730  0.3778E+01  0.6467E+02
  12.740  0.3678E+01  0.6471E+02
  12.750  0.3657E+01  0.6474E+02
  12.760  0.3617E+01  0.6478E+02
  12.770  0.3490E+01  0.6482E+02
  12.780  0.3405E+01  0.6485E+02
  12.790  0.3353E+01  0.6488E+02
  12.800  0.3313E+01  0.6492E+02
  12.810  0.3280E+01  0.6495E+02
  12.820  0.3271E+01  0.6498E+02
  12.830  0.3278E+01  0.6502E+02
  12.840  0.3286E+01  0.6505E+02
  12.850  0.3269E+01  0.6508E+02
  12.860  0.3259E+01  0.6511E+02
  12.870  0.3248E+01  0.6515E+02
  12.880  0.3261E+01  0.6518E+02
  12.890  0.3310E+01  0.6521E+02
  12.900  0.3358E+01  0.6525E+02
  12.910  0.3485E+01  0.6528E+02
  12.920  0.3683E+01  0.6532E+02
  12.930  0.4105E+01  0.6535E+02
  12.940  0.4592E+01  0.6540E+02
  12.950  0.4062E+01  0.6545E+02
  12.960  0.3881E+01  0.6549E+02
  12.970  0.3716E+01  0.6552E+02
  12.980  0.3642E+01  0.6556E+02
  12.990  0.3581E+01  0.6560E+02
  13.000  0.3433E+01  0.6563E+02
  13.010  0.3377E+01  0.6567E+02
  13.020  0.3364E+01  0.6570E+02
  13.030  0.3252E+01  0.6573E+02
  13.040  0.3236E+01  0.6576E+02
  13.050  0.3212E+01  0.6580E+02
  13.060  0.3176E+01  0.6583E+02
  13.070  0.3169E+01  0.6586E+02
  13.080  0.3175E+01  0.6589E+02
  13.090  0.3202E+01  0.6592E+02
  13.100  0.3264E+01  0.6596E+02
  13.110  0.3269E+01  0.6599E+02
  13.120  0.3340E+01  0.6602E+02
  13.130  0.3361E+01  0.6606E+02
  13.140  0.3488E+01  0.6609E+02
  13.150  0.3675E+01  0.6613E+02
  13.160  0.3828E+01  0.6616E+02
  13.170  0.4269E+01  0.6620E+02
  13.180  0.4954E+01  0.6625E+02
  13.190  0.4875E+01  0.6630E+02
  13.200  0.4745E+01  0.6635E+02
  13.210  0.4601E+01  0.6640E+02
  13.220  0.4299E+01  0.6644E+02
  13.230  0.4388E+01  0.6649E+02
  13.240  0.4630E+01  0.6653E+02
  13.250  0.4682E+01  0.6658E+02
  13.260  0.4640E+01  0.6662E+02
  13.270  0.4745E+01  0.6667E+02
  13.280  0.4784E+01  0.6672E+02
  13.290  0.4833E+01  0.6677E+02
  13.300  0.4937E+01  0.6681E+02
  13.310  0.5000E+01  0.6686E+02
  13.320  0.4728E+01  0.6691E+02
  13.330  0.4563E+01  0.6696E+02
  13.340  0.4495E+01  0.6700E+02
  13.350  0.4339E+01  0.6705E+02
  13.360  0.4001E+01  0.6709E+02
  13.370  0.3826E+01  0.6713E+02
  13.380  0.3725E+01  0.6717E+02
  13.390  0.3828E+01  0.6721E+02
  13.400  0.3622E+01  0.6724E+02
  13.410  0.3543E+01  0.6728E+02
  13.420  0.3525E+01  0.6731E+02
  13.430  0.3485E+01  0.6735E+02
  13.440  0.3366E+01  0.6738E+02
  13.450  0.3298E+01  0.6742E+02
  13.460  0.3238E+01  0.6745E+02
  13.470  0.3046E+01  0.6748E+02
  13.480  0.2951E+01  0.6751E+02
  13.490  0.3069E+01  0.6754E+02
  13.500  0.2926E+01  0.6757E+02
  13.510  0.2657E+01  0.6760E+02
  13.520  0.2347E+01  0.6762E+02
  13.530  0.2101E+01  0.6765E+02
  13.540  0.2038E+01  0.6767E+02
  13.550  0.1951E+01  0.6769E+02
  13.560  0.1881E+01  0.6771E+02
  13.570  0.1835E+01  0.6772E+02
  13.580  0.1750E+01  0.6774E+02
  13.590  0.1728E+01  0.6776E+02
  13.600  0.1730E+01  0.6778E+02
  13.610  0.1736E+01  0.6779E+02
  13.620  0.1753E+01  0.6781E+02
  13.630  0.1771E+01  0.6783E+02
  13.640  0.1797E+01  0.6785E+02
  13.650  0.1830E+01  0.6787E+02
  13.660  0.1857E+01  0.6788E+02
  13.670  0.1893E+01  0.6790E+02
  13.680  0.1927E+01  0.6792E+02
  13.690  0.1960E+01  0.6794E+02
  13.700  0.1992E+01  0.6796E+02
  13.710  0.2027E+01  0.6798E+02
  13.720  0.2052E+01  0.6800E+02
  13.730  0.2102E+01  0.6802E+02
  13.740  0.2184E+01  0.6804E+02
  13.750  0.2296E+01  0.6807E+02
  13.760  0.2341E+01  0.6809E+02
  13.770  0.2333E+01  0.6811E+02
  13.780  0.2272E+01  0.6814E+02
  13.790  0.2208E+01  0.6816E+02
  13.800  0.2058E+01  0.6818E+02
  13.810  0.1932E+01  0.6820E+02
  13.820  0.1822E+01  0.6822E+02
  13.830  0.1741E+01  0.6824E+02
  13.840  0.1692E+01  0.6825E+02
  13.850  0.1624E+01  0.6827E+02
  13.860  0.1585E+01  0.6829E+02
  13.870  0.1475E+01  0.6830E+02
  13.880  0.1179E+01  0.6831E+02
  13.890  0.1217E+01  0.6832E+02
  13.900  0.1118E+01  0.6834E+02
  13.910  0.1018E+01  0.6835E+02
  13.920  0.1133E+01  0.6836E+02
  13.930  0.1215E+01  0.6837E+02
  13.940  0.1286E+01  0.6838E+02
  13.950  0.1358E+01  0.6840E+02
  13.960  0.1464E+01  0.6841E+02
  13.970  0.1567E+01  0.6842E+02
  13.980  0.1665E+01  0.6844E+02
  13.990  0.1739E+01  0.6846E+02
  14.000  0.1831E+01  0.6848E+02
  14.010  0.2005E+01  0.6850E+02
  14.020  0.2080E+01  0.6852E+02
  14.030  0.2156E+01  0.6854E+02
  14.040  0.2132E+01  0.6856E+02
  14.050  0.2125E+01  0.6858E+02
  14.060  0.2065E+01  0.6860E+02
  14.070  0.2007E+01  0.6862E+02
  14.080  0.1990E+01  0.6864E+02
  14.090  0.1979E+01  0.6866E+02
  14.100  0.1973E+01  0.6868E+02
  14.110  0.1954E+01  0.6870E+02
  14.120  0.1961E+01  0.6872E+02
  14.130  0.1973E+01  0.6874E+02
  14.140  0.2010E+01  0.6876E+02
  14.150  0.2054E+01  0.6878E+02
  14.160  0.2042E+01  0.6880E+02
  14.170  0.2066E+01  0.6882E+02
  14.180  0.2092E+01  0.6884E+02
  14.190  0.2112E+01  0.6886E+02
  14.200  0.2150E+01  0.6888E+02
  14.210  0.2159E+01  0.6890E+02
  14.220  0.2193E+01  0.6893E+02
  14.230  0.2245E+01  0.6895E+02
  14.240  0.2301E+01  0.6897E+02
  14.250  0.2358E+01  0.6899E+02
  14.260  0.2419E+01  0.6902E+02
  14.270  0.2475E+01  0.6904E+02
  14.280  0.2555E+01  0.6907E+02
  14.290  0.2620E+01  0.6909E+02
  14.300  0.2711E+01  0.6912E+02
  14.310  0.2942E+01  0.6915E+02
  14.320  0.3087E+01  0.6918E+02
  14.330  0.3185E+01  0.6921E+02
  14.340  0.3413E+01  0.6924E+02
  14.350  0.3703E+01  0.6928E+02
  14.360  0.3713E+01  0.6932E+02
  14.370  0.3850E+01  0.6936E+02
  14.380  0.3744E+01  0.6939E+02
  14.390  0.3811E+01  0.6943E+02
  14.400  0.3871E+01  0.6947E+02
  14.410  0.3943E+01  0.6951E+02
  14.420  0.3972E+01  0.6955E+02
  14.430  0.4070E+01  0.6959E+02
  14.440  0.4129E+01  0.6963E+02
  14.450  0.4192E+01  0.6967E+02
  14.460  0.4253E+01  0.6971E+02
  14.470  0.4318E+01  0.6976E+02
  14.480  0.4406E+01  0.6980E+02
  14.490  0.4412E+01  0.6984E+02
  14.500  0.4719E+01  0.6989E+02
  14.510  0.5283E+01  0.6994E+02
  14.520  0.4997E+01  0.6999E+02
  14.530  0.5024E+01  0.7004E+02
  14.540  0.5074E+01  0.7009E+02
  14.550  0.5175E+01  0.7014E+02
  14.560  0.5308E+01  0.7019E+02
  14.570  0.5474E+01  0.7025E+02
  14.580  0.5557E+01  0.7030E+02
  14.590  0.5726E+01  0.7036E+02
  14.600  0.5946E+01  0.7042E+02
  14.610  0.6232E+01  0.7048E+02
  14.620  0.6395E+01  0.7054E+02
  14.630  0.6572E+01  0.7061E+02
  14.640  0.6745E+01  0.7067E+02
  14.650  0.6951E+01  0.7074E+02
  14.660  0.6619E+01  0.7081E+02
  14.670  0.6580E+01  0.7088E+02
  14.680  0.6449E+01  0.7094E+02
  14.690  0.6511E+01  0.7101E+02
  14.700  0.6606E+01  0.7107E+02
  14.710  0.7387E+01  0.7114E+02
  14.720  0.6684E+01  0.7121E+02
  14.730  0.6348E+01  0.7127E+02
  14.740  0.6320E+01  0.7133E+02
  14.750  0.6287E+01  0.7140E+02
  14.760  0.6456E+01  0.7146E+02
  14.770  0.6219E+01  0.7152E+02
  14.780  0.6173E+01  0.7159E+02
  14.790  0.6306E+01  0.7165E+02
  14.800  0.6065E+01  0.7171E+02
  14.810  0.5942E+01  0.7177E+02
  14.820  0.5979E+01  0.7183E+02
  14.830  0.5715E+01  0.7189E+02
  14.840  0.6872E+01  0.7195E+02
  14.850  0.5903E+01  0.7201E+02
  14.860  0.5651E+01  0.7207E+02
  14.870  0.5479E+01  0.7213E+02
  14.880  0.5359E+01  0.7218E+02
  14.890  0.5311E+01  0.7223E+02
  14.900  0.5198E+01  0.7229E+02
  14.910  0.4999E+01  0.7234E+02
  14.920  0.4820E+01  0.7239E+02
  14.930  0.4781E+01  0.7243E+02
  14.940  0.4750E+01  0.7248E+02
  14.950  0.4816E+01  0.7253E+02
  14.960  0.4950E+01  0.7258E+02
  14.970  0.4978E+01  0.7263E+02
  14.980  0.4955E+01  0.7268E+02
  14.990  0.5049E+01  0.7273E+02
  15.000  0.4954E+01  0.7278E+02
